SpectraSuite Data File
++++++++++++++++++++++++++++++++++++
Date: Fri May 01 10:37:41 EST 2015
User: ocean
Dark Spectrum Present: No
Reference Spectrum Present: No
Number of Sampled Component Spectra: 1
Spectrometers: USB4E02642
Integration Time (usec): 150000 (USB4E02642)
Spectra Averaged: 1 (USB4E02642)
Boxcar Smoothing: 0 (USB4E02642)
Correct for Electrical Dark: No (USB4E02642)
Strobe/Lamp Enabled: No (USB4E02642)
Correct for Detector Non-linearity: No (USB4E02642)
Correct for Stray Light: No (USB4E02642)
Number of Pixels in Processed Spectrum: 3648
>>>>>begin processed spectral data<<<<<
179.22	1101.81
179.43	1101.81
179.65	1101.81
179.86	1058.80
180.08	1028.08
180.29	1398.76
180.51	1318.89
180.72	1300.46
180.94	1357.80
181.15	1159.15
181.37	1413.10
181.58	1259.50
181.80	1341.42
182.01	1286.12
182.23	1355.76
182.44	1406.95
182.66	1339.37
182.87	1284.08
183.09	1296.36
183.30	1198.06
183.52	1333.23
183.73	1302.51
183.95	1398.76
184.16	1232.88
184.38	1329.13
184.59	1292.27
184.81	1304.56
185.02	1429.48
185.24	1200.11
185.45	1316.84
185.67	1292.27
185.88	1325.04
186.10	1099.76
186.31	1279.98
186.53	1353.71
186.74	1263.60
186.96	1265.64
187.17	1288.17
187.39	1251.31
187.60	1236.97
187.81	1380.33
188.03	1374.19
188.24	1327.08
188.46	1308.65
188.67	1484.78
188.89	1275.88
189.10	1394.67
189.32	1343.47
189.53	1306.60
189.75	1345.52
189.96	1394.67
190.18	1269.74
190.39	1247.21
190.61	1349.61
190.82	1261.55
191.04	1390.57
191.25	1464.30
191.46	1327.08
191.68	1314.80
191.89	1368.04
192.11	1312.75
192.32	1218.54
192.54	1306.60
192.75	1236.97
192.97	1316.84
193.18	1349.61
193.40	1296.36
193.61	1331.18
193.83	1449.96
194.04	1308.65
194.25	1382.38
194.47	1347.56
194.68	1320.94
194.90	1267.69
195.11	1443.82
195.33	1284.08
195.54	1333.23
195.76	1419.24
195.97	1234.93
196.18	1374.19
196.40	1396.71
196.61	1282.03
196.83	1374.19
197.04	1263.60
197.26	1366.00
197.47	1310.70
197.69	1298.41
197.90	1298.41
198.11	1304.56
198.33	1384.43
198.54	1277.93
198.76	1429.48
198.97	1417.19
199.19	1279.98
199.40	1288.17
199.61	1255.40
199.83	1175.53
200.04	1382.38
200.26	1366.00
200.47	1271.79
200.69	1353.71
200.90	1380.33
201.11	1302.51
201.33	1212.40
201.54	1452.01
201.76	1345.52
201.97	1325.04
202.19	1310.70
202.40	1466.35
202.61	1325.04
202.83	1310.70
203.04	1372.14
203.26	1351.66
203.47	1271.79
203.68	1435.63
203.90	1300.46
204.11	1396.71
204.33	1279.98
204.54	1454.06
204.75	1347.56
204.97	1251.31
205.18	1241.07
205.40	1224.69
205.61	1386.47
205.83	1482.73
206.04	1243.12
206.25	1366.00
206.47	1443.82
206.68	1366.00
206.90	1333.23
207.11	1277.93
207.32	1222.64
207.54	1390.57
207.75	1386.47
207.97	1322.99
208.18	1353.71
208.39	1341.42
208.61	1265.64
208.82	1423.34
209.03	1292.27
209.25	1357.80
209.46	1386.47
209.68	1306.60
209.89	1253.36
210.10	1370.09
210.32	1312.75
210.53	1445.87
210.75	1456.11
210.96	1306.60
211.17	1318.89
211.39	1304.56
211.60	1263.60
211.82	1253.36
212.03	1329.13
212.24	1288.17
212.46	1288.17
212.67	1417.19
212.88	1236.97
213.10	1345.52
213.31	1284.08
213.53	1372.14
213.74	1368.04
213.95	1361.90
214.17	1312.75
214.38	1325.04
214.59	1380.33
214.81	1513.45
215.02	1376.24
215.23	1378.28
215.45	1159.15
215.66	1286.12
215.88	1376.24
216.09	1267.69
216.30	1304.56
216.52	1302.51
216.73	1259.50
216.94	1378.28
217.16	1339.37
217.37	1513.45
217.58	1345.52
217.80	1499.11
218.01	1345.52
218.22	1331.18
218.44	1277.93
218.65	1345.52
218.87	1304.56
219.08	1286.12
219.29	1384.43
219.51	1341.42
219.72	1320.94
219.93	1429.48
220.15	1419.24
220.36	1320.94
220.57	1396.71
220.79	1296.36
221.00	1157.10
221.21	1462.25
221.43	1316.84
221.64	1230.83
221.85	1279.98
222.07	1310.70
222.28	1376.24
222.49	1312.75
222.71	1322.99
222.92	1265.64
223.13	1165.29
223.35	1228.78
223.56	1386.47
223.77	1267.69
223.99	1286.12
224.20	1378.28
224.41	1222.64
224.63	1411.05
224.84	1263.60
225.05	1423.34
225.27	1404.91
225.48	1521.64
225.69	1249.26
225.91	1333.23
226.12	1325.04
226.33	1486.83
226.55	1259.50
226.76	1259.50
226.97	1236.97
227.19	1282.03
227.40	1327.08
227.61	1366.00
227.82	1378.28
228.04	1234.93
228.25	1302.51
228.46	1265.64
228.68	1378.28
228.89	1454.06
229.10	1222.64
229.32	1398.76
229.53	1265.64
229.74	1404.91
229.96	1361.90
230.17	1425.39
230.38	1495.02
230.59	1267.69
230.81	1310.70
231.02	1249.26
231.23	1216.49
231.45	1392.62
231.66	1302.51
231.87	1421.29
232.09	1359.85
232.30	1333.23
232.51	1372.14
232.72	1308.65
232.94	1230.83
233.15	1482.73
233.36	1206.25
233.58	1284.08
233.79	1294.32
234.00	1255.40
234.21	1433.58
234.43	1273.84
234.64	1390.57
234.85	1415.15
235.07	1302.51
235.28	1355.76
235.49	1261.55
235.70	1423.34
235.92	1341.42
236.13	1306.60
236.34	1394.67
236.56	1169.39
236.77	1302.51
236.98	1312.75
237.19	1325.04
237.41	1339.37
237.62	1314.80
237.83	1495.02
238.04	1427.43
238.26	1318.89
238.47	1325.04
238.68	1427.43
238.89	1316.84
239.11	1456.11
239.32	1333.23
239.53	1382.38
239.75	1269.74
239.96	1263.60
240.17	1277.93
240.38	1333.23
240.60	1316.84
240.81	1327.08
241.02	1372.14
241.23	1312.75
241.45	1363.95
241.66	1253.36
241.87	1370.09
242.08	1374.19
242.30	1255.40
242.51	1302.51
242.72	1247.21
242.93	1337.32
243.15	1351.66
243.36	1443.82
243.57	1302.51
243.78	1357.80
244.00	1345.52
244.21	1173.49
244.42	1333.23
244.63	1411.05
244.85	1308.65
245.06	1294.32
245.27	1361.90
245.48	1288.17
245.70	1290.22
245.91	1441.77
246.12	1284.08
246.33	1308.65
246.54	1409.00
246.76	1349.61
246.97	1363.95
247.18	1325.04
247.39	1322.99
247.61	1454.06
247.82	1300.46
248.03	1333.23
248.24	1314.80
248.45	1294.32
248.67	1329.13
248.88	1366.00
249.09	1310.70
249.30	1396.71
249.52	1382.38
249.73	1390.57
249.94	1265.64
250.15	1363.95
250.36	1370.09
250.58	1517.54
250.79	1386.47
251.00	1292.27
251.21	1437.67
251.43	1255.40
251.64	1497.07
251.85	1339.37
252.06	1353.71
252.27	1372.14
252.49	1327.08
252.70	1370.09
252.91	1368.04
253.12	1265.64
253.33	1382.38
253.55	1325.04
253.76	1312.75
253.97	1306.60
254.18	1366.00
254.39	1447.91
254.61	1257.45
254.82	1406.95
255.03	1400.81
255.24	1347.56
255.45	1427.43
255.67	1331.18
255.88	1331.18
256.09	1445.87
256.30	1335.28
256.51	1480.68
256.73	1335.28
256.94	1161.20
257.15	1445.87
257.36	1298.41
257.57	1398.76
257.78	1230.83
258.00	1380.33
258.21	1468.39
258.42	1296.36
258.63	1361.90
258.84	1234.93
259.06	1333.23
259.27	1368.04
259.48	1351.66
259.69	1386.47
259.90	1218.54
260.11	1425.39
260.33	1253.36
260.54	1396.71
260.75	1331.18
260.96	1304.56
261.17	1431.53
261.38	1398.76
261.60	1406.95
261.81	1392.62
262.02	1374.19
262.23	1318.89
262.44	1386.47
262.65	1357.80
262.87	1374.19
263.08	1386.47
263.29	1341.42
263.50	1308.65
263.71	1357.80
263.92	1226.73
264.13	1320.94
264.35	1394.67
264.56	1318.89
264.77	1458.15
264.98	1263.60
265.19	1171.44
265.40	1290.22
265.62	1359.85
265.83	1378.28
266.04	1304.56
266.25	1380.33
266.46	1292.27
266.67	1456.11
266.88	1437.67
267.10	1331.18
267.31	1345.52
267.52	1292.27
267.73	1306.60
267.94	1275.88
268.15	1277.93
268.36	1245.16
268.57	1458.15
268.79	1249.26
269.00	1304.56
269.21	1210.35
269.42	1288.17
269.63	1236.97
269.84	1263.60
270.05	1191.92
270.27	1347.56
270.48	1271.79
270.69	1226.73
270.90	1275.88
271.11	1361.90
271.32	1390.57
271.53	1325.04
271.74	1263.60
271.96	1429.48
272.17	1265.64
272.38	1292.27
272.59	1228.78
272.80	1314.80
273.01	1241.07
273.22	1241.07
273.43	1396.71
273.64	1320.94
273.86	1411.05
274.07	1351.66
274.28	1357.80
274.49	1417.19
274.70	1284.08
274.91	1374.19
275.12	1464.30
275.33	1216.49
275.54	1251.31
275.76	1271.79
275.97	1322.99
276.18	1302.51
276.39	1275.88
276.60	1347.56
276.81	1347.56
277.02	1288.17
277.23	1341.42
277.44	1230.83
277.65	1304.56
277.86	1314.80
278.08	1355.76
278.29	1366.00
278.50	1497.07
278.71	1388.52
278.92	1341.42
279.13	1257.45
279.34	1308.65
279.55	1243.12
279.76	1445.87
279.97	1243.12
280.18	1445.87
280.40	1398.76
280.61	1220.59
280.82	1222.64
281.03	1292.27
281.24	1462.25
281.45	1396.71
281.66	1304.56
281.87	1355.76
282.08	1306.60
282.29	1366.00
282.50	1173.49
282.71	1253.36
282.92	1599.46
283.13	1445.87
283.35	1302.51
283.56	1357.80
283.77	1290.22
283.98	1390.57
284.19	1370.09
284.40	1167.34
284.61	1243.12
284.82	1345.52
285.03	1384.43
285.24	1230.83
285.45	1298.41
285.66	1380.33
285.87	1337.32
286.08	1314.80
286.29	1353.71
286.50	1294.32
286.71	1331.18
286.93	1259.50
287.14	1349.61
287.35	1327.08
287.56	1271.79
287.77	1372.14
287.98	1370.09
288.19	1366.00
288.40	1343.47
288.61	1230.83
288.82	1300.46
289.03	1384.43
289.24	1400.81
289.45	1468.39
289.66	1333.23
289.87	1429.48
290.08	1275.88
290.29	1290.22
290.50	1343.47
290.71	1275.88
290.92	1411.05
291.13	1349.61
291.34	1413.10
291.55	1275.88
291.76	1245.16
291.97	1277.93
292.18	1284.08
292.39	1357.80
292.61	1300.46
292.82	1300.46
293.03	1468.39
293.24	1239.02
293.45	1388.52
293.66	1230.83
293.87	1341.42
294.08	1282.03
294.29	1288.17
294.50	1423.34
294.71	1445.87
294.92	1294.32
295.13	1361.90
295.34	1316.84
295.55	1222.64
295.76	1300.46
295.97	1398.76
296.18	1402.86
296.39	1320.94
296.60	1398.76
296.81	1282.03
297.02	1316.84
297.23	1441.77
297.44	1322.99
297.65	1394.67
297.86	1382.38
298.07	1161.20
298.28	1318.89
298.49	1187.82
298.70	1292.27
298.91	1347.56
299.12	1267.69
299.33	1284.08
299.54	1308.65
299.75	1320.94
299.96	1347.56
300.17	1413.10
300.38	1261.55
300.59	1191.92
300.80	1368.04
301.01	1435.63
301.22	1325.04
301.43	1339.37
301.64	1282.03
301.85	1253.36
302.06	1357.80
302.27	1284.08
302.48	1562.60
302.69	1216.49
302.89	1304.56
303.10	1329.13
303.31	1273.84
303.52	1275.88
303.73	1318.89
303.94	1357.80
304.15	1216.49
304.36	1286.12
304.57	1267.69
304.78	1294.32
304.99	1318.89
305.20	1259.50
305.41	1415.15
305.62	1445.87
305.83	1288.17
306.04	1157.10
306.25	1411.05
306.46	1339.37
306.67	1357.80
306.88	1345.52
307.09	1308.65
307.30	1282.03
307.51	1312.75
307.72	1279.98
307.93	1304.56
308.14	1271.79
308.35	1327.08
308.55	1327.08
308.76	1144.81
308.97	1290.22
309.18	1378.28
309.39	1359.85
309.60	1322.99
309.81	1366.00
310.02	1218.54
310.23	1181.68
310.44	1310.70
310.65	1322.99
310.86	1296.36
311.07	1411.05
311.28	1325.04
311.49	1310.70
311.70	1380.33
311.91	1257.45
312.11	1316.84
312.32	1308.65
312.53	1341.42
312.74	1351.66
312.95	1341.42
313.16	1425.39
313.37	1343.47
313.58	1247.21
313.79	1239.02
314.00	1304.56
314.21	1239.02
314.42	1206.25
314.63	1271.79
314.83	1398.76
315.04	1337.32
315.25	1366.00
315.46	1437.67
315.67	1257.45
315.88	1286.12
316.09	1353.71
316.30	1310.70
316.51	1302.51
316.72	1239.02
316.93	1222.64
317.13	1415.15
317.34	1222.64
317.55	1495.02
317.76	1325.04
317.97	1265.64
318.18	1290.22
318.39	1411.05
318.60	1347.56
318.81	1255.40
319.02	1394.67
319.23	1355.76
319.43	1413.10
319.64	1286.12
319.85	1341.42
320.06	1361.90
320.27	1372.14
320.48	1341.42
320.69	1353.71
320.90	1282.03
321.11	1349.61
321.31	1392.62
321.52	1327.08
321.73	1353.71
321.94	1306.60
322.15	1290.22
322.36	1452.01
322.57	1357.80
322.78	1277.93
322.98	1454.06
323.19	1370.09
323.40	1286.12
323.61	1312.75
323.82	1275.88
324.03	1249.26
324.24	1452.01
324.45	1267.69
324.65	1216.49
324.86	1417.19
325.07	1374.19
325.28	1343.47
325.49	1318.89
325.70	1368.04
325.91	1400.81
326.12	1300.46
326.32	1200.11
326.53	1255.40
326.74	1320.94
326.95	1404.91
327.16	1366.00
327.37	1349.61
327.58	1282.03
327.78	1236.97
327.99	1189.87
328.20	1253.36
328.41	1273.84
328.62	1245.16
328.83	1300.46
329.04	1228.78
329.24	1290.22
329.45	1241.07
329.66	1363.95
329.87	1443.82
330.08	1310.70
330.29	1380.33
330.49	1495.02
330.70	1263.60
330.91	1378.28
331.12	1308.65
331.33	1357.80
331.54	1366.00
331.74	1306.60
331.95	1279.98
332.16	1251.31
332.37	1322.99
332.58	1396.71
332.79	1308.65
332.99	1322.99
333.20	1347.56
333.41	1464.30
333.62	1341.42
333.83	1302.51
334.04	1335.28
334.24	1347.56
334.45	1144.81
334.66	1304.56
334.87	1292.27
335.08	1382.38
335.29	1245.16
335.49	1372.14
335.70	1288.17
335.91	1345.52
336.12	1411.05
336.33	1355.76
336.53	1374.19
336.74	1325.04
336.95	1394.67
337.16	1243.12
337.37	1251.31
337.57	1257.45
337.78	1314.80
337.99	1355.76
338.20	1322.99
338.41	1298.41
338.62	1279.98
338.82	1460.20
339.03	1337.32
339.24	1251.31
339.45	1390.57
339.65	1243.12
339.86	1271.79
340.07	1388.52
340.28	1271.79
340.49	1366.00
340.69	1357.80
340.90	1372.14
341.11	1357.80
341.32	1325.04
341.53	1316.84
341.73	1372.14
341.94	1390.57
342.15	1279.98
342.36	1447.91
342.57	1466.35
342.77	1327.08
342.98	1304.56
343.19	1296.36
343.40	1337.32
343.60	1370.09
343.81	1300.46
344.02	1374.19
344.23	1329.13
344.44	1263.60
344.64	1230.83
344.85	1372.14
345.06	1310.70
345.27	1277.93
345.47	1306.60
345.68	1300.46
345.89	1279.98
346.10	1441.77
346.30	1210.35
346.51	1406.95
346.72	1402.86
346.93	1347.56
347.13	1226.73
347.34	1333.23
347.55	1335.28
347.76	1304.56
347.97	1445.87
348.17	1288.17
348.38	1298.41
348.59	1302.51
348.80	1253.36
349.00	1349.61
349.21	1279.98
349.42	1394.67
349.63	1435.63
349.83	1261.55
350.04	1294.32
350.25	1320.94
350.45	1171.44
350.66	1284.08
350.87	1318.89
351.08	1210.35
351.28	1368.04
351.49	1298.41
351.70	1484.78
351.91	1320.94
352.11	1329.13
352.32	1318.89
352.53	1335.28
352.74	1193.97
352.94	1347.56
353.15	1277.93
353.36	1333.23
353.56	1239.02
353.77	1275.88
353.98	1396.71
354.19	1376.24
354.39	1253.36
354.60	1282.03
354.81	1445.87
355.02	1222.64
355.22	1449.96
355.43	1302.51
355.64	1335.28
355.84	1454.06
356.05	1239.02
356.26	1492.97
356.47	1327.08
356.67	1353.71
356.88	1411.05
357.09	1306.60
357.29	1372.14
357.50	1449.96
357.71	1181.68
357.92	1368.04
358.12	1298.41
358.33	1290.22
358.54	1259.50
358.74	1378.28
358.95	1480.68
359.16	1318.89
359.36	1249.26
359.57	1298.41
359.78	1382.38
359.98	1277.93
360.19	1282.03
360.40	1429.48
360.61	1464.30
360.81	1333.23
361.02	1169.39
361.23	1253.36
361.43	1345.52
361.64	1277.93
361.85	1345.52
362.05	1310.70
362.26	1368.04
362.47	1316.84
362.67	1296.36
362.88	1343.47
363.09	1251.31
363.29	1300.46
363.50	1282.03
363.71	1241.07
363.91	1259.50
364.12	1488.87
364.33	1230.83
364.53	1378.28
364.74	1263.60
364.95	1253.36
365.15	1316.84
365.36	1200.11
365.57	1386.47
365.77	1298.41
365.98	1296.36
366.19	1404.91
366.39	1177.58
366.60	1296.36
366.81	1243.12
367.01	1392.62
367.22	1339.37
367.43	1363.95
367.63	1341.42
367.84	1341.42
368.05	1370.09
368.25	1366.00
368.46	1302.51
368.67	1351.66
368.87	1292.27
369.08	1187.82
369.29	1261.55
369.49	1353.71
369.70	1351.66
369.91	1351.66
370.11	1251.31
370.32	1249.26
370.52	1361.90
370.73	1415.15
370.94	1263.60
371.14	1402.86
371.35	1286.12
371.56	1312.75
371.76	1357.80
371.97	1511.40
372.18	1163.25
372.38	1193.97
372.59	1247.21
372.79	1300.46
373.00	1316.84
373.21	1404.91
373.41	1269.74
373.62	1239.02
373.83	1255.40
374.03	1312.75
374.24	1271.79
374.44	1361.90
374.65	1390.57
374.86	1343.47
375.06	1308.65
375.27	1327.08
375.47	1456.11
375.68	1406.95
375.89	1308.65
376.09	1431.53
376.30	1294.32
376.50	1316.84
376.71	1466.35
376.92	1298.41
377.12	1312.75
377.33	1357.80
377.54	1257.45
377.74	1339.37
377.95	1388.52
378.15	1284.08
378.36	1329.13
378.57	1361.90
378.77	1443.82
378.98	1271.79
379.18	1263.60
379.39	1251.31
379.59	1222.64
379.80	1208.30
380.01	1320.94
380.21	1439.72
380.42	1261.55
380.62	1374.19
380.83	1210.35
381.04	1267.69
381.24	1302.51
381.45	1402.86
381.65	1394.67
381.86	1181.68
382.06	1382.38
382.27	1292.27
382.48	1247.21
382.68	1382.38
382.89	1368.04
383.09	1380.33
383.30	1282.03
383.51	1314.80
383.71	1345.52
383.92	1206.25
384.12	1269.74
384.33	1314.80
384.53	1327.08
384.74	1380.33
384.94	1468.39
385.15	1337.32
385.36	1325.04
385.56	1241.07
385.77	1282.03
385.97	1298.41
386.18	1255.40
386.38	1298.41
386.59	1374.19
386.79	1286.12
387.00	1269.74
387.21	1341.42
387.41	1357.80
387.62	1406.95
387.82	1327.08
388.03	1267.69
388.23	1261.55
388.44	1378.28
388.64	1255.40
388.85	1327.08
389.06	1269.74
389.26	1443.82
389.47	1239.02
389.67	1210.35
389.88	1433.58
390.08	1312.75
390.29	1359.85
390.49	1329.13
390.70	1476.59
390.90	1269.74
391.11	1341.42
391.31	1345.52
391.52	1282.03
391.72	1335.28
391.93	1183.73
392.13	1374.19
392.34	1210.35
392.55	1312.75
392.75	1320.94
392.96	1210.35
393.16	1306.60
393.37	1366.00
393.57	1277.93
393.78	1306.60
393.98	1335.28
394.19	1347.56
394.39	1228.78
394.60	1429.48
394.80	1288.17
395.01	1370.09
395.21	1429.48
395.42	1380.33
395.62	1239.02
395.83	1279.98
396.03	1357.80
396.24	1488.87
396.44	1363.95
396.65	1386.47
396.85	1353.71
397.06	1376.24
397.26	1198.06
397.47	1241.07
397.67	1417.19
397.88	1253.36
398.08	1210.35
398.29	1296.36
398.49	1304.56
398.70	1341.42
398.90	1306.60
399.11	1232.88
399.31	1398.76
399.52	1271.79
399.72	1345.52
399.93	1376.24
400.13	1243.12
400.34	1316.84
400.54	1458.15
400.75	1306.60
400.95	1316.84
401.15	1497.07
401.36	1357.80
401.56	1331.18
401.77	1306.60
401.97	1263.60
402.18	1298.41
402.38	1327.08
402.59	1372.14
402.79	1320.94
403.00	1275.88
403.20	1355.76
403.41	1337.32
403.61	1247.21
403.82	1261.55
404.02	1296.36
404.22	1222.64
404.43	1347.56
404.63	1292.27
404.84	1372.14
405.04	1216.49
405.25	1267.69
405.45	1267.69
405.66	1241.07
405.86	1290.22
406.07	1355.76
406.27	1226.73
406.47	1337.32
406.68	1271.79
406.88	1347.56
407.09	1320.94
407.29	1355.76
407.50	1226.73
407.70	1298.41
407.91	1161.20
408.11	1372.14
408.31	1263.60
408.52	1300.46
408.72	1241.07
408.93	1325.04
409.13	1316.84
409.34	1396.71
409.54	1333.23
409.74	1327.08
409.95	1247.21
410.15	1282.03
410.36	1247.21
410.56	1253.36
410.77	1322.99
410.97	1212.40
411.17	1300.46
411.38	1294.32
411.58	1363.95
411.79	1288.17
411.99	1263.60
412.19	1353.71
412.40	1224.69
412.60	1396.71
412.81	1259.50
413.01	1380.33
413.22	1304.56
413.42	1286.12
413.62	1308.65
413.83	1370.09
414.03	1226.73
414.24	1312.75
414.44	1380.33
414.64	1304.56
414.85	1290.22
415.05	1308.65
415.26	1329.13
415.46	1206.25
415.66	1243.12
415.87	1177.58
416.07	1232.88
416.28	1300.46
416.48	1335.28
416.68	1404.91
416.89	1312.75
417.09	1347.56
417.29	1259.50
417.50	1347.56
417.70	1241.07
417.91	1294.32
418.11	1279.98
418.31	1284.08
418.52	1257.45
418.72	1288.17
418.93	1210.35
419.13	1239.02
419.33	1353.71
419.54	1257.45
419.74	1292.27
419.94	1419.24
420.15	1349.61
420.35	1298.41
420.56	1273.84
420.76	1159.15
420.96	1232.88
421.17	1312.75
421.37	1316.84
421.57	1249.26
421.78	1277.93
421.98	1325.04
422.18	1382.38
422.39	1353.71
422.59	1249.26
422.80	1363.95
423.00	1306.60
423.20	1335.28
423.41	1300.46
423.61	1339.37
423.81	1296.36
424.02	1286.12
424.22	1320.94
424.42	1267.69
424.63	1263.60
424.83	1302.51
425.03	1267.69
425.24	1333.23
425.44	1341.42
425.64	1263.60
425.85	1298.41
426.05	1247.21
426.25	1267.69
426.46	1312.75
426.66	1259.50
426.86	1478.63
427.07	1322.99
427.27	1384.43
427.47	1517.54
427.68	1241.07
427.88	1376.24
428.08	1421.29
428.29	1337.32
428.49	1257.45
428.69	1452.01
428.90	1191.92
429.10	1249.26
429.30	1361.90
429.51	1259.50
429.71	1316.84
429.91	1234.93
430.12	1406.95
430.32	1452.01
430.52	1222.64
430.72	1208.30
430.93	1224.69
431.13	1304.56
431.33	1316.84
431.54	1294.32
431.74	1292.27
431.94	1249.26
432.15	1366.00
432.35	1329.13
432.55	1214.45
432.76	1236.97
432.96	1282.03
433.16	1298.41
433.36	1415.15
433.57	1263.60
433.77	1411.05
433.97	1284.08
434.18	1292.27
434.38	1216.49
434.58	1396.71
434.78	1322.99
434.99	1386.47
435.19	1425.39
435.39	1275.88
435.60	1255.40
435.80	1482.73
436.00	1357.80
436.20	1271.79
436.41	1226.73
436.61	1277.93
436.81	1275.88
437.02	1415.15
437.22	1275.88
437.42	1327.08
437.62	1275.88
437.83	1392.62
438.03	1200.11
438.23	1282.03
438.43	1296.36
438.64	1341.42
438.84	1259.50
439.04	1347.56
439.25	1400.81
439.45	1460.20
439.65	1220.59
439.85	1390.57
440.06	1312.75
440.26	1413.10
440.46	1353.71
440.66	1318.89
440.87	1314.80
441.07	1349.61
441.27	1366.00
441.47	1357.80
441.68	1325.04
441.88	1335.28
442.08	1378.28
442.28	1386.47
442.49	1374.19
442.69	1466.35
442.89	1341.42
443.09	1316.84
443.30	1134.57
443.50	1400.81
443.70	1230.83
443.90	1243.12
444.10	1325.04
444.31	1394.67
444.51	1204.21
444.71	1312.75
444.91	1327.08
445.12	1351.66
445.32	1511.40
445.52	1279.98
445.72	1212.40
445.93	1214.45
446.13	1322.99
446.33	1372.14
446.53	1361.90
446.73	1259.50
446.94	1187.82
447.14	1259.50
447.34	1241.07
447.54	1351.66
447.74	1212.40
447.95	1339.37
448.15	1310.70
448.35	1284.08
448.55	1247.21
448.76	1269.74
448.96	1265.64
449.16	1273.84
449.36	1382.38
449.56	1243.12
449.77	1318.89
449.97	1300.46
450.17	1220.59
450.37	1251.31
450.57	1374.19
450.78	1359.85
450.98	1263.60
451.18	1370.09
451.38	1218.54
451.58	1210.35
451.79	1210.35
451.99	1302.51
452.19	1296.36
452.39	1406.95
452.59	1304.56
452.79	1310.70
453.00	1396.71
453.20	1312.75
453.40	1228.78
453.60	1380.33
453.80	1382.38
454.01	1282.03
454.21	1210.35
454.41	1206.25
454.61	1288.17
454.81	1368.04
455.01	1341.42
455.22	1263.60
455.42	1386.47
455.62	1415.15
455.82	1341.42
456.02	1220.59
456.22	1310.70
456.43	1300.46
456.63	1275.88
456.83	1292.27
457.03	1304.56
457.23	1339.37
457.43	1277.93
457.64	1277.93
457.84	1310.70
458.04	1300.46
458.24	1284.08
458.44	1361.90
458.64	1316.84
458.84	1370.09
459.05	1228.78
459.25	1353.71
459.45	1339.37
459.65	1306.60
459.85	1271.79
460.05	1243.12
460.25	1378.28
460.46	1388.52
460.66	1292.27
460.86	1294.32
461.06	1345.52
461.26	1329.13
461.46	1335.28
461.66	1294.32
461.87	1445.87
462.07	1304.56
462.27	1357.80
462.47	1302.51
462.67	1333.23
462.87	1366.00
463.07	1259.50
463.27	1339.37
463.48	1193.97
463.68	1353.71
463.88	1282.03
464.08	1384.43
464.28	1257.45
464.48	1284.08
464.68	1230.83
464.88	1292.27
465.08	1312.75
465.29	1390.57
465.49	1202.16
465.69	1357.80
465.89	1437.67
466.09	1273.84
466.29	1327.08
466.49	1378.28
466.69	1234.93
466.89	1269.74
467.10	1443.82
467.30	1318.89
467.50	1484.78
467.70	1366.00
467.90	1290.22
468.10	1290.22
468.30	1308.65
468.50	1239.02
468.70	1253.36
468.90	1300.46
469.10	1286.12
469.31	1449.96
469.51	1396.71
469.71	1251.31
469.91	1400.81
470.11	1322.99
470.31	1230.83
470.51	1345.52
470.71	1325.04
470.91	1353.71
471.11	1282.03
471.31	1372.14
471.51	1355.76
471.71	1296.36
471.92	1337.32
472.12	1282.03
472.32	1361.90
472.52	1284.08
472.72	1232.88
472.92	1325.04
473.12	1363.95
473.32	1296.36
473.52	1341.42
473.72	1349.61
473.92	1400.81
474.12	1312.75
474.32	1271.79
474.52	1390.57
474.72	1322.99
474.92	1169.39
475.13	1298.41
475.33	1271.79
475.53	1282.03
475.73	1310.70
475.93	1261.55
476.13	1171.44
476.33	1261.55
476.53	1341.42
476.73	1208.30
476.93	1388.52
477.13	1218.54
477.33	1341.42
477.53	1314.80
477.73	1372.14
477.93	1312.75
478.13	1411.05
478.33	1341.42
478.53	1382.38
478.73	1341.42
478.93	1290.22
479.13	1236.97
479.33	1214.45
479.53	1316.84
479.73	1368.04
479.93	1198.06
480.13	1327.08
480.33	1388.52
480.53	1243.12
480.73	1255.40
480.93	1366.00
481.13	1140.72
481.34	1292.27
481.54	1304.56
481.74	1380.33
481.94	1333.23
482.14	1370.09
482.34	1230.83
482.54	1322.99
482.74	1247.21
482.94	1390.57
483.14	1308.65
483.34	1290.22
483.54	1314.80
483.74	1357.80
483.94	1269.74
484.14	1296.36
484.34	1218.54
484.54	1341.42
484.74	1435.63
484.94	1306.60
485.14	1325.04
485.34	1320.94
485.54	1331.18
485.74	1341.42
485.93	1357.80
486.13	1402.86
486.33	1255.40
486.53	1333.23
486.73	1363.95
486.93	1349.61
487.13	1292.27
487.33	1335.28
487.53	1255.40
487.73	1431.53
487.93	1204.21
488.13	1413.10
488.33	1310.70
488.53	1363.95
488.73	1185.77
488.93	1259.50
489.13	1304.56
489.33	1411.05
489.53	1302.51
489.73	1314.80
489.93	1329.13
490.13	1234.93
490.33	1429.48
490.53	1273.84
490.73	1357.80
490.93	1333.23
491.13	1298.41
491.33	1288.17
491.53	1359.85
491.73	1382.38
491.93	1150.96
492.12	1333.23
492.32	1265.64
492.52	1265.64
492.72	1335.28
492.92	1159.15
493.12	1284.08
493.32	1243.12
493.52	1345.52
493.72	1243.12
493.92	1363.95
494.12	1290.22
494.32	1296.36
494.52	1282.03
494.72	1361.90
494.92	1284.08
495.12	1284.08
495.31	1236.97
495.51	1310.70
495.71	1396.71
495.91	1325.04
496.11	1282.03
496.31	1251.31
496.51	1298.41
496.71	1144.81
496.91	1265.64
497.11	1314.80
497.31	1300.46
497.51	1290.22
497.71	1468.39
497.90	1337.32
498.10	1304.56
498.30	1341.42
498.50	1267.69
498.70	1390.57
498.90	1417.19
499.10	1245.16
499.30	1316.84
499.50	1337.32
499.70	1308.65
499.89	1253.36
500.09	1222.64
500.29	1275.88
500.49	1452.01
500.69	1294.32
500.89	1200.11
501.09	1241.07
501.29	1284.08
501.49	1509.35
501.69	1300.46
501.88	1400.81
502.08	1232.88
502.28	1308.65
502.48	1322.99
502.68	1419.24
502.88	1210.35
503.08	1245.16
503.28	1318.89
503.47	1290.22
503.67	1398.76
503.87	1261.55
504.07	1341.42
504.27	1343.47
504.47	1206.25
504.67	1316.84
504.87	1239.02
505.06	1212.40
505.26	1339.37
505.46	1171.44
505.66	1370.09
505.86	1216.49
506.06	1306.60
506.26	1230.83
506.45	1335.28
506.65	1333.23
506.85	1382.38
507.05	1279.98
507.25	1202.16
507.45	1361.90
507.65	1396.71
507.84	1304.56
508.04	1275.88
508.24	1245.16
508.44	1366.00
508.64	1236.97
508.84	1282.03
509.04	1312.75
509.23	1388.52
509.43	1445.87
509.63	1376.24
509.83	1236.97
510.03	1296.36
510.23	1273.84
510.42	1294.32
510.62	1318.89
510.82	1314.80
511.02	1409.00
511.22	1310.70
511.42	1251.31
511.61	1325.04
511.81	1335.28
512.01	1263.60
512.21	1261.55
512.41	1333.23
512.60	1249.26
512.80	1341.42
513.00	1386.47
513.20	1284.08
513.40	1279.98
513.60	1308.65
513.79	1392.62
513.99	1363.95
514.19	1400.81
514.39	1271.79
514.59	1284.08
514.78	1355.76
514.98	1376.24
515.18	1347.56
515.38	1325.04
515.58	1423.34
515.77	1316.84
515.97	1226.73
516.17	1366.00
516.37	1339.37
516.57	1236.97
516.76	1304.56
516.96	1392.62
517.16	1378.28
517.36	1357.80
517.56	1263.60
517.75	1337.32
517.95	1290.22
518.15	1286.12
518.35	1210.35
518.55	1376.24
518.74	1402.86
518.94	1185.77
519.14	1363.95
519.34	1337.32
519.53	1331.18
519.73	1308.65
519.93	1316.84
520.13	1337.32
520.32	1300.46
520.52	1290.22
520.72	1417.19
520.92	1249.26
521.12	1292.27
521.31	1357.80
521.51	1314.80
521.71	1314.80
521.91	1320.94
522.10	1296.36
522.30	1380.33
522.50	1277.93
522.70	1390.57
522.89	1230.83
523.09	1368.04
523.29	1314.80
523.49	1386.47
523.68	1333.23
523.88	1335.28
524.08	1495.02
524.28	1406.95
524.47	1347.56
524.67	1273.84
524.87	1302.51
525.07	1372.14
525.26	1304.56
525.46	1347.56
525.66	1488.87
525.86	1386.47
526.05	1335.28
526.25	1351.66
526.45	1298.41
526.64	1263.60
526.84	1329.13
527.04	1329.13
527.24	1439.72
527.43	1282.03
527.63	1409.00
527.83	1390.57
528.03	1286.12
528.22	1445.87
528.42	1449.96
528.62	1380.33
528.81	1304.56
529.01	1398.76
529.21	1302.51
529.41	1355.76
529.60	1376.24
529.80	1343.47
530.00	1368.04
530.19	1351.66
530.39	1421.29
530.59	1372.14
530.79	1316.84
530.98	1259.50
531.18	1259.50
531.38	1259.50
531.57	1341.42
531.77	1308.65
531.97	1411.05
532.16	1273.84
532.36	1361.90
532.56	1282.03
532.76	1298.41
532.95	1421.29
533.15	1423.34
533.35	1335.28
533.54	1400.81
533.74	1314.80
533.94	1431.53
534.13	1284.08
534.33	1370.09
534.53	1312.75
534.72	1456.11
534.92	1425.39
535.12	1292.27
535.31	1320.94
535.51	1263.60
535.71	1279.98
535.90	1527.78
536.10	1271.79
536.30	1265.64
536.49	1351.66
536.69	1325.04
536.89	1411.05
537.08	1417.19
537.28	1271.79
537.48	1431.53
537.67	1396.71
537.87	1353.71
538.07	1304.56
538.26	1216.49
538.46	1345.52
538.66	1241.07
538.85	1331.18
539.05	1542.12
539.25	1259.50
539.44	1415.15
539.64	1353.71
539.84	1341.42
540.03	1345.52
540.23	1441.77
540.42	1333.23
540.62	1511.40
540.82	1372.14
541.01	1394.67
541.21	1331.18
541.41	1198.06
541.60	1376.24
541.80	1380.33
542.00	1279.98
542.19	1339.37
542.39	1390.57
542.58	1255.40
542.78	1318.89
542.98	1361.90
543.17	1341.42
543.37	1386.47
543.57	1384.43
543.76	1316.84
543.96	1353.71
544.15	1443.82
544.35	1361.90
544.55	1234.93
544.74	1345.52
544.94	1499.11
545.13	1300.46
545.33	1454.06
545.53	1339.37
545.72	1236.97
545.92	1392.62
546.11	1427.43
546.31	1372.14
546.51	1269.74
546.70	1392.62
546.90	1390.57
547.09	1300.46
547.29	1284.08
547.49	1294.32
547.68	1406.95
547.88	1292.27
548.07	1400.81
548.27	1327.08
548.47	1335.28
548.66	1519.59
548.86	1343.47
549.05	1370.09
549.25	1257.45
549.45	1302.51
549.64	1304.56
549.84	1437.67
550.03	1425.39
550.23	1372.14
550.42	1380.33
550.62	1314.80
550.82	1175.53
551.01	1275.88
551.21	1241.07
551.40	1320.94
551.60	1269.74
551.79	1359.85
551.99	1341.42
552.19	1265.64
552.38	1275.88
552.58	1404.91
552.77	1341.42
552.97	1296.36
553.16	1368.04
553.36	1406.95
553.55	1271.79
553.75	1300.46
553.95	1261.55
554.14	1384.43
554.34	1224.69
554.53	1370.09
554.73	1351.66
554.92	1333.23
555.12	1318.89
555.31	1292.27
555.51	1366.00
555.70	1325.04
555.90	1306.60
556.09	1251.31
556.29	1314.80
556.49	1380.33
556.68	1439.72
556.88	1284.08
557.07	1349.61
557.27	1269.74
557.46	1417.19
557.66	1370.09
557.85	1333.23
558.05	1372.14
558.24	1316.84
558.44	1245.16
558.63	1320.94
558.83	1271.79
559.02	1392.62
559.22	1322.99
559.41	1413.10
559.61	1464.30
559.80	1411.05
560.00	1363.95
560.19	1337.32
560.39	1312.75
560.58	1464.30
560.78	1214.45
560.97	1398.76
561.17	1290.22
561.36	1374.19
561.56	1363.95
561.75	1294.32
561.95	1411.05
562.14	1409.00
562.34	1325.04
562.53	1327.08
562.73	1263.60
562.92	1234.93
563.12	1255.40
563.31	1298.41
563.51	1337.32
563.70	1302.51
563.90	1279.98
564.09	1269.74
564.29	1312.75
564.48	1181.68
564.68	1279.98
564.87	1427.43
565.07	1345.52
565.26	1261.55
565.46	1310.70
565.65	1269.74
565.85	1316.84
566.04	1257.45
566.24	1294.32
566.43	1282.03
566.63	1234.93
566.82	1245.16
567.01	1265.64
567.21	1460.20
567.40	1335.28
567.60	1251.31
567.79	1353.71
567.99	1361.90
568.18	1388.52
568.38	1284.08
568.57	1368.04
568.77	1290.22
568.96	1318.89
569.15	1249.26
569.35	1265.64
569.54	1417.19
569.74	1241.07
569.93	1279.98
570.13	1404.91
570.32	1327.08
570.52	1366.00
570.71	1372.14
570.90	1282.03
571.10	1302.51
571.29	1275.88
571.49	1298.41
571.68	1333.23
571.88	1386.47
572.07	1343.47
572.26	1374.19
572.46	1290.22
572.65	1390.57
572.85	1353.71
573.04	1245.16
573.24	1284.08
573.43	1372.14
573.62	1402.86
573.82	1294.32
574.01	1239.02
574.21	1279.98
574.40	1320.94
574.59	1273.84
574.79	1290.22
574.98	1419.24
575.18	1265.64
575.37	1390.57
575.56	1243.12
575.76	1255.40
575.95	1380.33
576.15	1255.40
576.34	1353.71
576.53	1245.16
576.73	1361.90
576.92	1251.31
577.12	1318.89
577.31	1415.15
577.50	1277.93
577.70	1249.26
577.89	1384.43
578.09	1449.96
578.28	1316.84
578.47	1357.80
578.67	1378.28
578.86	1329.13
579.06	1322.99
579.25	1224.69
579.44	1265.64
579.64	1425.39
579.83	1314.80
580.02	1337.32
580.22	1345.52
580.41	1327.08
580.61	1386.47
580.80	1267.69
580.99	1282.03
581.19	1464.30
581.38	1429.48
581.57	1288.17
581.77	1314.80
581.96	1218.54
582.15	1337.32
582.35	1316.84
582.54	1372.14
582.73	1304.56
582.93	1259.50
583.12	1392.62
583.32	1265.64
583.51	1292.27
583.70	1380.33
583.90	1341.42
584.09	1275.88
584.28	1329.13
584.48	1294.32
584.67	1431.53
584.86	1230.83
585.06	1296.36
585.25	1394.67
585.44	1277.93
585.64	1292.27
585.83	1472.49
586.02	1421.29
586.22	1300.46
586.41	1259.50
586.60	1357.80
586.80	1316.84
586.99	1292.27
587.18	1388.52
587.38	1388.52
587.57	1443.82
587.76	1415.15
587.96	1345.52
588.15	1443.82
588.34	1261.55
588.53	1339.37
588.73	1292.27
588.92	1288.17
589.11	1411.05
589.31	1329.13
589.50	1273.84
589.69	1257.45
589.89	1413.10
590.08	1357.80
590.27	1261.55
590.47	1349.61
590.66	1255.40
590.85	1378.28
591.04	1214.45
591.24	1284.08
591.43	1322.99
591.62	1208.30
591.82	1288.17
592.01	1472.49
592.20	1474.54
592.39	1359.85
592.59	1394.67
592.78	1298.41
592.97	1363.95
593.17	1331.18
593.36	1226.73
593.55	1431.53
593.74	1255.40
593.94	1433.58
594.13	1294.32
594.32	1302.51
594.52	1341.42
594.71	1341.42
594.90	1290.22
595.09	1372.14
595.29	1267.69
595.48	1292.27
595.67	1361.90
595.86	1239.02
596.06	1320.94
596.25	1294.32
596.44	1284.08
596.63	1226.73
596.83	1314.80
597.02	1308.65
597.21	1218.54
597.40	1433.58
597.60	1300.46
597.79	1353.71
597.98	1320.94
598.17	1308.65
598.37	1388.52
598.56	1265.64
598.75	1290.22
598.94	1421.29
599.14	1234.93
599.33	1257.45
599.52	1234.93
599.71	1443.82
599.91	1372.14
600.10	1222.64
600.29	1243.12
600.48	1353.71
600.68	1275.88
600.87	1304.56
601.06	1353.71
601.25	1482.73
601.44	1269.74
601.64	1370.09
601.83	1398.76
602.02	1349.61
602.21	1374.19
602.41	1363.95
602.60	1312.75
602.79	1269.74
602.98	1456.11
603.17	1341.42
603.37	1327.08
603.56	1439.72
603.75	1304.56
603.94	1286.12
604.13	1316.84
604.33	1462.25
604.52	1255.40
604.71	1294.32
604.90	1298.41
605.09	1431.53
605.29	1351.66
605.48	1419.24
605.67	1236.97
605.86	1331.18
606.05	1357.80
606.25	1298.41
606.44	1314.80
606.63	1249.26
606.82	1306.60
607.01	1386.47
607.20	1374.19
607.40	1312.75
607.59	1345.52
607.78	1359.85
607.97	1320.94
608.16	1409.00
608.36	1341.42
608.55	1228.78
608.74	1363.95
608.93	1368.04
609.12	1286.12
609.31	1325.04
609.51	1320.94
609.70	1439.72
609.89	1357.80
610.08	1304.56
610.27	1275.88
610.46	1331.18
610.66	1357.80
610.85	1292.27
611.04	1398.76
611.23	1406.95
611.42	1415.15
611.61	1298.41
611.80	1331.18
612.00	1466.35
612.19	1374.19
612.38	1394.67
612.57	1427.43
612.76	1478.63
612.95	1628.14
613.14	1366.00
613.34	1296.36
613.53	1290.22
613.72	1417.19
613.91	1296.36
614.10	1322.99
614.29	1368.04
614.48	1351.66
614.67	1284.08
614.87	1347.56
615.06	1261.55
615.25	1447.91
615.44	1337.32
615.63	1331.18
615.82	1480.68
616.01	1351.66
616.20	1249.26
616.40	1308.65
616.59	1376.24
616.78	1320.94
616.97	1402.86
617.16	1267.69
617.35	1433.58
617.54	1386.47
617.73	1404.91
617.92	1279.98
618.12	1312.75
618.31	1366.00
618.50	1398.76
618.69	1345.52
618.88	1316.84
619.07	1251.31
619.26	1417.19
619.45	1394.67
619.64	1253.36
619.83	1271.79
620.02	1210.35
620.22	1265.64
620.41	1222.64
620.60	1421.29
620.79	1279.98
620.98	1200.11
621.17	1185.77
621.36	1517.54
621.55	1226.73
621.74	1439.72
621.93	1316.84
622.12	1388.52
622.31	1406.95
622.51	1456.11
622.70	1306.60
622.89	1449.96
623.08	1431.53
623.27	1316.84
623.46	1329.13
623.65	1402.86
623.84	1191.92
624.03	1339.37
624.22	1386.47
624.41	1384.43
624.60	1255.40
624.79	1282.03
624.98	1480.68
625.17	1251.31
625.36	1388.52
625.55	1376.24
625.74	1284.08
625.94	1404.91
626.13	1226.73
626.32	1331.18
626.51	1325.04
626.70	1243.12
626.89	1279.98
627.08	1347.56
627.27	1394.67
627.46	1292.27
627.65	1345.52
627.84	1259.50
628.03	1368.04
628.22	1286.12
628.41	1437.67
628.60	1200.11
628.79	1306.60
628.98	1366.00
629.17	1263.60
629.36	1288.17
629.55	1361.90
629.74	1417.19
629.93	1241.07
630.12	1394.67
630.31	1370.09
630.50	1372.14
630.69	1390.57
630.88	1314.80
631.07	1329.13
631.26	1341.42
631.45	1263.60
631.64	1388.52
631.83	1339.37
632.02	1343.47
632.21	1236.97
632.40	1437.67
632.59	1353.71
632.78	1329.13
632.97	1316.84
633.16	1417.19
633.35	1329.13
633.54	1351.66
633.73	1222.64
633.92	1300.46
634.11	1370.09
634.30	1251.31
634.49	1310.70
634.68	1255.40
634.87	1357.80
635.06	1298.41
635.25	1368.04
635.44	1347.56
635.63	1234.93
635.82	1409.00
636.01	1273.84
636.20	1423.34
636.39	1337.32
636.58	1351.66
636.77	1331.18
636.96	1282.03
637.15	1351.66
637.34	1413.10
637.53	1333.23
637.72	1366.00
637.91	1325.04
638.09	1394.67
638.28	1288.17
638.47	1275.88
638.66	1413.10
638.85	1269.74
639.04	1378.28
639.23	1222.64
639.42	1415.15
639.61	1273.84
639.80	1357.80
639.99	1398.76
640.18	1394.67
640.37	1599.46
640.56	1241.07
640.75	1282.03
640.94	1306.60
641.13	1255.40
641.32	1355.76
641.50	1282.03
641.69	1279.98
641.88	1193.97
642.07	1241.07
642.26	1392.62
642.45	1308.65
642.64	1368.04
642.83	1318.89
643.02	1372.14
643.21	1325.04
643.40	1404.91
643.59	1251.31
643.77	1216.49
643.96	1406.95
644.15	1366.00
644.34	1314.80
644.53	1251.31
644.72	1236.97
644.91	1300.46
645.10	1345.52
645.29	1322.99
645.48	1245.16
645.67	1308.65
645.85	1384.43
646.04	1335.28
646.23	1366.00
646.42	1294.32
646.61	1271.79
646.80	1300.46
646.99	1245.16
647.18	1345.52
647.37	1263.60
647.55	1243.12
647.74	1452.01
647.93	1284.08
648.12	1296.36
648.31	1300.46
648.50	1386.47
648.69	1388.52
648.88	1320.94
649.06	1269.74
649.25	1275.88
649.44	1226.73
649.63	1251.31
649.82	1327.08
650.01	1253.36
650.20	1312.75
650.39	1284.08
650.57	1343.47
650.76	1398.76
650.95	1382.38
651.14	1322.99
651.33	1355.76
651.52	1275.88
651.70	1361.90
651.89	1279.98
652.08	1214.45
652.27	1452.01
652.46	1392.62
652.65	1243.12
652.84	1368.04
653.02	1449.96
653.21	1325.04
653.40	1228.78
653.59	1308.65
653.78	1325.04
653.97	1320.94
654.15	1433.58
654.34	1327.08
654.53	1177.58
654.72	1320.94
654.91	1320.94
655.10	1294.32
655.28	1415.15
655.47	1374.19
655.66	1282.03
655.85	1353.71
656.04	1308.65
656.23	1331.18
656.41	1302.51
656.60	1265.64
656.79	1357.80
656.98	1300.46
657.17	1239.02
657.35	1333.23
657.54	1208.30
657.73	1261.55
657.92	1327.08
658.11	1417.19
658.29	1257.45
658.48	1218.54
658.67	1288.17
658.86	1384.43
659.05	1396.71
659.23	1355.76
659.42	1400.81
659.61	1366.00
659.80	1345.52
659.99	1257.45
660.17	1366.00
660.36	1363.95
660.55	1253.36
660.74	1443.82
660.92	1269.74
661.11	1298.41
661.30	1218.54
661.49	1423.34
661.68	1249.26
661.86	1228.78
662.05	1435.63
662.24	1359.85
662.43	1427.43
662.61	1376.24
662.80	1376.24
662.99	1222.64
663.18	1361.90
663.37	1306.60
663.55	1302.51
663.74	1390.57
663.93	1267.69
664.12	1425.39
664.30	1447.91
664.49	1265.64
664.68	1306.60
664.87	1204.21
665.05	1314.80
665.24	1312.75
665.43	1404.91
665.62	1267.69
665.80	1347.56
665.99	1380.33
666.18	1294.32
666.37	1423.34
666.55	1261.55
666.74	1273.84
666.93	1335.28
667.11	1234.93
667.30	1218.54
667.49	1339.37
667.68	1335.28
667.86	1341.42
668.05	1357.80
668.24	1378.28
668.43	1361.90
668.61	1292.27
668.80	1325.04
668.99	1236.97
669.17	1343.47
669.36	1423.34
669.55	1357.80
669.74	1236.97
669.92	1277.93
670.11	1263.60
670.30	1390.57
670.48	1390.57
670.67	1247.21
670.86	1247.21
671.05	1292.27
671.23	1308.65
671.42	1259.50
671.61	1306.60
671.79	1386.47
671.98	1269.74
672.17	1345.52
672.35	1417.19
672.54	1468.39
672.73	1325.04
672.91	1282.03
673.10	1310.70
673.29	1259.50
673.48	1322.99
673.66	1382.38
673.85	1374.19
674.04	1282.03
674.22	1466.35
674.41	1329.13
674.60	1290.22
674.78	1304.56
674.97	1441.77
675.16	1228.78
675.34	1163.25
675.53	1325.04
675.72	1505.26
675.90	1447.91
676.09	1333.23
676.28	1292.27
676.46	1359.85
676.65	1345.52
676.84	1349.61
677.02	1406.95
677.21	1292.27
677.40	1386.47
677.58	1355.76
677.77	1341.42
677.95	1329.13
678.14	1292.27
678.33	1345.52
678.51	1316.84
678.70	1345.52
678.89	1265.64
679.07	1290.22
679.26	1249.26
679.45	1388.52
679.63	1460.20
679.82	1466.35
680.01	1329.13
680.19	1232.88
680.38	1402.86
680.56	1314.80
680.75	1353.71
680.94	1306.60
681.12	1349.61
681.31	1333.23
681.50	1300.46
681.68	1239.02
681.87	1359.85
682.05	1265.64
682.24	1472.49
682.43	1255.40
682.61	1329.13
682.80	1376.24
682.98	1267.69
683.17	1366.00
683.36	1357.80
683.54	1368.04
683.73	1347.56
683.91	1480.68
684.10	1363.95
684.29	1325.04
684.47	1335.28
684.66	1378.28
684.84	1259.50
685.03	1290.22
685.22	1300.46
685.40	1290.22
685.59	1312.75
685.77	1490.92
685.96	1409.00
686.15	1306.60
686.33	1320.94
686.52	1312.75
686.70	1402.86
686.89	1337.32
687.07	1300.46
687.26	1292.27
687.45	1310.70
687.63	1214.45
687.82	1382.38
688.00	1402.86
688.19	1409.00
688.37	1271.79
688.56	1372.14
688.75	1370.09
688.93	1415.15
689.12	1404.91
689.30	1372.14
689.49	1345.52
689.67	1269.74
689.86	1275.88
690.04	1353.71
690.23	1173.49
690.42	1347.56
690.60	1474.54
690.79	1353.71
690.97	1404.91
691.16	1314.80
691.34	1454.06
691.53	1269.74
691.71	1378.28
691.90	1325.04
692.08	1198.06
692.27	1382.38
692.45	1308.65
692.64	1269.74
692.83	1384.43
693.01	1302.51
693.20	1343.47
693.38	1257.45
693.57	1423.34
693.75	1224.69
693.94	1257.45
694.12	1366.00
694.31	1318.89
694.49	1286.12
694.68	1333.23
694.86	1411.05
695.05	1353.71
695.23	1372.14
695.42	1333.23
695.60	1284.08
695.79	1458.15
695.97	1236.97
696.16	1349.61
696.34	1177.58
696.53	1331.18
696.71	1279.98
696.90	1331.18
697.08	1288.17
697.27	1406.95
697.45	1257.45
697.64	1339.37
697.82	1298.41
698.01	1388.52
698.19	1353.71
698.38	1298.41
698.56	1357.80
698.75	1316.84
698.93	1263.60
699.12	1441.77
699.30	1368.04
699.49	1353.71
699.67	1265.64
699.86	1259.50
700.04	1310.70
700.22	1314.80
700.41	1300.46
700.59	1325.04
700.78	1370.09
700.96	1431.53
701.15	1284.08
701.33	1345.52
701.52	1277.93
701.70	1349.61
701.89	1318.89
702.07	1320.94
702.26	1427.43
702.44	1380.33
702.62	1298.41
702.81	1339.37
702.99	1273.84
703.18	1347.56
703.36	1390.57
703.55	1394.67
703.73	1458.15
703.92	1366.00
704.10	1335.28
704.28	1464.30
704.47	1443.82
704.65	1325.04
704.84	1370.09
705.02	1308.65
705.21	1292.27
705.39	1310.70
705.57	1386.47
705.76	1320.94
705.94	1406.95
706.13	1357.80
706.31	1275.88
706.50	1286.12
706.68	1279.98
706.86	1312.75
707.05	1263.60
707.23	1337.32
707.42	1443.82
707.60	1302.51
707.78	1300.46
707.97	1388.52
708.15	1380.33
708.34	1322.99
708.52	1343.47
708.70	1411.05
708.89	1302.51
709.07	1275.88
709.26	1275.88
709.44	1409.00
709.62	1306.60
709.81	1214.45
709.99	1353.71
710.18	1333.23
710.36	1282.03
710.54	1349.61
710.73	1372.14
710.91	1325.04
711.10	1396.71
711.28	1212.40
711.46	1257.45
711.65	1345.52
711.83	1316.84
712.01	1497.07
712.20	1255.40
712.38	1370.09
712.57	1349.61
712.75	1286.12
712.93	1351.66
713.12	1368.04
713.30	1284.08
713.48	1304.56
713.67	1347.56
713.85	1288.17
714.03	1361.90
714.22	1380.33
714.40	1275.88
714.58	1388.52
714.77	1353.71
714.95	1286.12
715.14	1347.56
715.32	1288.17
715.50	1335.28
715.69	1259.50
715.87	1312.75
716.05	1284.08
716.24	1351.66
716.42	1320.94
716.60	1378.28
716.79	1331.18
716.97	1271.79
717.15	1327.08
717.34	1363.95
717.52	1284.08
717.70	1325.04
717.89	1314.80
718.07	1318.89
718.25	1198.06
718.44	1374.19
718.62	1261.55
718.80	1366.00
718.98	1279.98
719.17	1279.98
719.35	1464.30
719.53	1388.52
719.72	1390.57
719.90	1378.28
720.08	1392.62
720.27	1253.36
720.45	1361.90
720.63	1316.84
720.82	1398.76
721.00	1310.70
721.18	1245.16
721.36	1361.90
721.55	1464.30
721.73	1370.09
721.91	1376.24
722.10	1308.65
722.28	1292.27
722.46	1261.55
722.64	1306.60
722.83	1333.23
723.01	1363.95
723.19	1263.60
723.38	1230.83
723.56	1394.67
723.74	1349.61
723.92	1288.17
724.11	1341.42
724.29	1241.07
724.47	1337.32
724.65	1368.04
724.84	1234.93
725.02	1478.63
725.20	1314.80
725.39	1232.88
725.57	1406.95
725.75	1411.05
725.93	1509.35
726.12	1382.38
726.30	1253.36
726.48	1355.76
726.66	1333.23
726.85	1302.51
727.03	1378.28
727.21	1413.10
727.39	1363.95
727.58	1411.05
727.76	1318.89
727.94	1368.04
728.12	1300.46
728.30	1302.51
728.49	1372.14
728.67	1288.17
728.85	1357.80
729.03	1245.16
729.22	1378.28
729.40	1290.22
729.58	1355.76
729.76	1239.02
729.95	1343.47
730.13	1351.66
730.31	1279.98
730.49	1382.38
730.67	1318.89
730.86	1415.15
731.04	1374.19
731.22	1294.32
731.40	1286.12
731.58	1415.15
731.77	1484.78
731.95	1327.08
732.13	1269.74
732.31	1290.22
732.50	1413.10
732.68	1228.78
732.86	1370.09
733.04	1241.07
733.22	1236.97
733.40	1212.40
733.59	1296.36
733.77	1388.52
733.95	1349.61
734.13	1261.55
734.31	1310.70
734.50	1351.66
734.68	1271.79
734.86	1325.04
735.04	1257.45
735.22	1421.29
735.41	1398.76
735.59	1294.32
735.77	1329.13
735.95	1409.00
736.13	1273.84
736.31	1265.64
736.50	1339.37
736.68	1466.35
736.86	1320.94
737.04	1316.84
737.22	1359.85
737.40	1357.80
737.59	1400.81
737.77	1380.33
737.95	1312.75
738.13	1226.73
738.31	1390.57
738.49	1200.11
738.67	1282.03
738.86	1443.82
739.04	1322.99
739.22	1376.24
739.40	1269.74
739.58	1472.49
739.76	1294.32
739.94	1296.36
740.13	1492.97
740.31	1392.62
740.49	1345.52
740.67	1378.28
740.85	1372.14
741.03	1261.55
741.21	1443.82
741.39	1310.70
741.58	1404.91
741.76	1404.91
741.94	1277.93
742.12	1382.38
742.30	1331.18
742.48	1437.67
742.66	1394.67
742.84	1345.52
743.03	1288.17
743.21	1402.86
743.39	1368.04
743.57	1351.66
743.75	1312.75
743.93	1392.62
744.11	1257.45
744.29	1359.85
744.47	1388.52
744.65	1470.44
744.84	1316.84
745.02	1335.28
745.20	1314.80
745.38	1228.78
745.56	1230.83
745.74	1255.40
745.92	1322.99
746.10	1314.80
746.28	1335.28
746.46	1341.42
746.64	1282.03
746.82	1415.15
747.01	1220.59
747.19	1292.27
747.37	1423.34
747.55	1419.24
747.73	1339.37
747.91	1257.45
748.09	1282.03
748.27	1327.08
748.45	1366.00
748.63	1292.27
748.81	1157.10
748.99	1296.36
749.17	1429.48
749.35	1363.95
749.53	1286.12
749.72	1361.90
749.90	1241.07
750.08	1439.72
750.26	1421.29
750.44	1400.81
750.62	1441.77
750.80	1318.89
750.98	1304.56
751.16	1263.60
751.34	1306.60
751.52	1396.71
751.70	1353.71
751.88	1470.44
752.06	1452.01
752.24	1251.31
752.42	1273.84
752.60	1316.84
752.78	1255.40
752.96	1304.56
753.14	1316.84
753.32	1316.84
753.50	1363.95
753.68	1302.51
753.86	1378.28
754.04	1288.17
754.22	1400.81
754.40	1394.67
754.58	1314.80
754.76	1230.83
754.94	1310.70
755.12	1421.29
755.30	1263.60
755.48	1366.00
755.66	1374.19
755.84	1349.61
756.02	1322.99
756.20	1255.40
756.38	1468.39
756.56	1361.90
756.74	1361.90
756.92	1429.48
757.10	1398.76
757.28	1345.52
757.46	1275.88
757.64	1337.32
757.82	1361.90
758.00	1318.89
758.18	1290.22
758.36	1320.94
758.54	1357.80
758.72	1355.76
758.90	1306.60
759.08	1314.80
759.26	1538.02
759.44	1300.46
759.62	1380.33
759.80	1275.88
759.98	1265.64
760.16	1304.56
760.34	1322.99
760.52	1380.33
760.70	1388.52
760.88	1368.04
761.06	1155.05
761.24	1368.04
761.42	1341.42
761.60	1519.59
761.77	1253.36
761.95	1374.19
762.13	1431.53
762.31	1343.47
762.49	1339.37
762.67	1427.43
762.85	1279.98
763.03	1286.12
763.21	1222.64
763.39	1269.74
763.57	1384.43
763.75	1316.84
763.93	1345.52
764.11	1263.60
764.29	1306.60
764.46	1349.61
764.64	1298.41
764.82	1320.94
765.00	1366.00
765.18	1423.34
765.36	1333.23
765.54	1329.13
765.72	1329.13
765.90	1314.80
766.08	1404.91
766.26	1353.71
766.44	1355.76
766.61	1279.98
766.79	1329.13
766.97	1382.38
767.15	1318.89
767.33	1382.38
767.51	1341.42
767.69	1331.18
767.87	1335.28
768.05	1370.09
768.22	1386.47
768.40	1464.30
768.58	1431.53
768.76	1243.12
768.94	1404.91
769.12	1259.50
769.30	1345.52
769.48	1394.67
769.66	1292.27
769.83	1210.35
770.01	1275.88
770.19	1298.41
770.37	1464.30
770.55	1239.02
770.73	1431.53
770.91	1304.56
771.09	1406.95
771.26	1284.08
771.44	1423.34
771.62	1310.70
771.80	1329.13
771.98	1427.43
772.16	1409.00
772.34	1372.14
772.51	1345.52
772.69	1511.40
772.87	1462.25
773.05	1331.18
773.23	1306.60
773.41	1320.94
773.58	1394.67
773.76	1322.99
773.94	1374.19
774.12	1419.24
774.30	1460.20
774.48	1325.04
774.65	1265.64
774.83	1382.38
775.01	1302.51
775.19	1339.37
775.37	1406.95
775.55	1386.47
775.72	1363.95
775.90	1402.86
776.08	1306.60
776.26	1562.60
776.44	1404.91
776.61	1359.85
776.79	1417.19
776.97	1318.89
777.15	1425.39
777.33	1374.19
777.51	1355.76
777.68	1337.32
777.86	1290.22
778.04	1456.11
778.22	1320.94
778.40	1404.91
778.57	1390.57
778.75	1310.70
778.93	1355.76
779.11	1355.76
779.29	1404.91
779.46	1390.57
779.64	1341.42
779.82	1378.28
780.00	1241.07
780.17	1390.57
780.35	1304.56
780.53	1484.78
780.71	1427.43
780.89	1310.70
781.06	1339.37
781.24	1384.43
781.42	1302.51
781.60	1417.19
781.77	1368.04
781.95	1443.82
782.13	1341.42
782.31	1378.28
782.48	1374.19
782.66	1370.09
782.84	1439.72
783.02	1429.48
783.19	1499.11
783.37	1335.28
783.55	1322.99
783.73	1376.24
783.90	1331.18
784.08	1538.02
784.26	1384.43
784.44	1322.99
784.61	1302.51
784.79	1433.58
784.97	1349.61
785.15	1476.59
785.32	1351.66
785.50	1429.48
785.68	1478.63
785.86	1357.80
786.03	1400.81
786.21	1419.24
786.39	1394.67
786.57	1245.16
786.74	1357.80
786.92	1394.67
787.10	1488.87
787.27	1347.56
787.45	1349.61
787.63	1415.15
787.81	1454.06
787.98	1343.47
788.16	1423.34
788.34	1482.73
788.51	1310.70
788.69	1341.42
788.87	1398.76
789.04	1511.40
789.22	1470.44
789.40	1357.80
789.58	1394.67
789.75	1447.91
789.93	1454.06
790.11	1400.81
790.28	1222.64
790.46	1458.15
790.64	1406.95
790.81	1361.90
790.99	1472.49
791.17	1400.81
791.34	1386.47
791.52	1357.80
791.70	1331.18
791.87	1488.87
792.05	1400.81
792.23	1343.47
792.40	1466.35
792.58	1247.21
792.76	1390.57
792.93	1499.11
793.11	1341.42
793.29	1439.72
793.46	1429.48
793.64	1376.24
793.82	1390.57
793.99	1343.47
794.17	1255.40
794.35	1275.88
794.52	1462.25
794.70	1456.11
794.88	1507.30
795.05	1382.38
795.23	1273.84
795.41	1386.47
795.58	1169.39
795.76	1382.38
795.94	1329.13
796.11	1388.52
796.29	1431.53
796.46	1568.74
796.64	1325.04
796.82	1445.87
796.99	1386.47
797.17	1318.89
797.35	1366.00
797.52	1439.72
797.70	1437.67
797.87	1437.67
798.05	1535.98
798.23	1355.76
798.40	1460.20
798.58	1284.08
798.76	1314.80
798.93	1378.28
799.11	1427.43
799.28	1417.19
799.46	1290.22
799.64	1320.94
799.81	1462.25
799.99	1353.71
800.16	1312.75
800.34	1335.28
800.52	1234.93
800.69	1333.23
800.87	1447.91
801.04	1353.71
801.22	1345.52
801.39	1366.00
801.57	1282.03
801.75	1279.98
801.92	1495.02
802.10	1306.60
802.27	1267.69
802.45	1431.53
802.63	1423.34
802.80	1456.11
802.98	1288.17
803.15	1327.08
803.33	1318.89
803.50	1300.46
803.68	1304.56
803.86	1392.62
804.03	1437.67
804.21	1513.45
804.38	1458.15
804.56	1486.83
804.73	1529.83
804.91	1193.97
805.08	1392.62
805.26	1263.60
805.44	1331.18
805.61	1452.01
805.79	1347.56
805.96	1409.00
806.14	1312.75
806.31	1302.51
806.49	1413.10
806.66	1400.81
806.84	1394.67
807.01	1404.91
807.19	1275.88
807.36	1361.90
807.54	1466.35
807.71	1189.87
807.89	1300.46
808.07	1398.76
808.24	1368.04
808.42	1327.08
808.59	1409.00
808.77	1304.56
808.94	1468.39
809.12	1353.71
809.29	1447.91
809.47	1361.90
809.64	1343.47
809.82	1421.29
809.99	1366.00
810.17	1386.47
810.34	1374.19
810.52	1255.40
810.69	1277.93
810.87	1241.07
811.04	1355.76
811.22	1343.47
811.39	1261.55
811.57	1378.28
811.74	1386.47
811.92	1251.31
812.09	1513.45
812.27	1398.76
812.44	1275.88
812.62	1382.38
812.79	1370.09
812.97	1470.44
813.14	1302.51
813.31	1183.73
813.49	1386.47
813.66	1406.95
813.84	1232.88
814.01	1382.38
814.19	1345.52
814.36	1402.86
814.54	1376.24
814.71	1382.38
814.89	1316.84
815.06	1411.05
815.24	1355.76
815.41	1361.90
815.58	1366.00
815.76	1476.59
815.93	1396.71
816.11	1404.91
816.28	1210.35
816.46	1425.39
816.63	1409.00
816.81	1247.21
816.98	1339.37
817.15	1353.71
817.33	1404.91
817.50	1386.47
817.68	1296.36
817.85	1497.07
818.03	1394.67
818.20	1306.60
818.37	1351.66
818.55	1388.52
818.72	1292.27
818.90	1374.19
819.07	1402.86
819.25	1466.35
819.42	1406.95
819.59	1294.32
819.77	1296.36
819.94	1460.20
820.12	1497.07
820.29	1527.78
820.46	1353.71
820.64	1392.62
820.81	1322.99
820.99	1400.81
821.16	1282.03
821.33	1370.09
821.51	1507.30
821.68	1480.68
821.86	1558.50
822.03	1279.98
822.20	1384.43
822.38	1374.19
822.55	1384.43
822.73	1382.38
822.90	1431.53
823.07	1320.94
823.25	1374.19
823.42	1329.13
823.59	1398.76
823.77	1343.47
823.94	1404.91
824.12	1396.71
824.29	1363.95
824.46	1304.56
824.64	1275.88
824.81	1329.13
824.98	1322.99
825.16	1329.13
825.33	1312.75
825.50	1329.13
825.68	1406.95
825.85	1370.09
826.03	1378.28
826.20	1322.99
826.37	1466.35
826.55	1372.14
826.72	1349.61
826.89	1437.67
827.07	1390.57
827.24	1302.51
827.41	1302.51
827.59	1320.94
827.76	1386.47
827.93	1345.52
828.11	1347.56
828.28	1318.89
828.45	1409.00
828.63	1386.47
828.80	1337.32
828.97	1382.38
829.15	1464.30
829.32	1288.17
829.49	1409.00
829.67	1257.45
829.84	1372.14
830.01	1300.46
830.18	1366.00
830.36	1378.28
830.53	1331.18
830.70	1273.84
830.88	1234.93
831.05	1359.85
831.22	1535.98
831.40	1273.84
831.57	1347.56
831.74	1513.45
831.91	1427.43
832.09	1302.51
832.26	1357.80
832.43	1443.82
832.61	1406.95
832.78	1398.76
832.95	1329.13
833.13	1435.63
833.30	1314.80
833.47	1441.77
833.64	1339.37
833.82	1447.91
833.99	1279.98
834.16	1370.09
834.33	1466.35
834.51	1378.28
834.68	1556.46
834.85	1322.99
835.03	1355.76
835.20	1372.14
835.37	1300.46
835.54	1308.65
835.72	1474.54
835.89	1329.13
836.06	1441.77
836.23	1304.56
836.41	1327.08
836.58	1277.93
836.75	1398.76
836.92	1359.85
837.10	1357.80
837.27	1284.08
837.44	1411.05
837.61	1335.28
837.78	1413.10
837.96	1353.71
838.13	1441.77
838.30	1353.71
838.47	1427.43
838.65	1304.56
838.82	1386.47
838.99	1417.19
839.16	1318.89
839.34	1382.38
839.51	1335.28
839.68	1411.05
839.85	1484.78
840.02	1355.76
840.20	1257.45
840.37	1282.03
840.54	1302.51
840.71	1482.73
840.88	1318.89
841.06	1341.42
841.23	1462.25
841.40	1486.83
841.57	1439.72
841.74	1202.16
841.92	1261.55
842.09	1366.00
842.26	1417.19
842.43	1196.01
842.60	1361.90
842.78	1312.75
842.95	1253.36
843.12	1439.72
843.29	1386.47
843.46	1460.20
843.64	1388.52
843.81	1341.42
843.98	1445.87
844.15	1521.64
844.32	1368.04
844.49	1273.84
844.67	1497.07
844.84	1433.58
845.01	1306.60
845.18	1400.81
845.35	1341.42
845.52	1275.88
845.70	1521.64
845.87	1382.38
846.04	1429.48
846.21	1224.69
846.38	1507.30
846.55	1288.17
846.72	1325.04
846.90	1320.94
847.07	1263.60
847.24	1433.58
847.41	1425.39
847.58	1372.14
847.75	1376.24
847.92	1357.80
848.10	1452.01
848.27	1267.69
848.44	1417.19
848.61	1345.52
848.78	1374.19
848.95	1316.84
849.12	1400.81
849.29	1349.61
849.47	1406.95
849.64	1384.43
849.81	1427.43
849.98	1474.54
850.15	1443.82
850.32	1345.52
850.49	1282.03
850.66	1277.93
850.84	1349.61
851.01	1232.88
851.18	1343.47
851.35	1310.70
851.52	1335.28
851.69	1404.91
851.86	1419.24
852.03	1425.39
852.20	1245.16
852.37	1337.32
852.54	1439.72
852.72	1441.77
852.89	1476.59
853.06	1437.67
853.23	1335.28
853.40	1462.25
853.57	1282.03
853.74	1392.62
853.91	1267.69
854.08	1312.75
854.25	1224.69
854.42	1404.91
854.59	1429.48
854.76	1435.63
854.94	1236.97
855.11	1296.36
855.28	1284.08
855.45	1394.67
855.62	1329.13
855.79	1337.32
855.96	1384.43
856.13	1429.48
856.30	1241.07
856.47	1404.91
856.64	1380.33
856.81	1314.80
856.98	1349.61
857.15	1380.33
857.32	1286.12
857.49	1349.61
857.66	1220.59
857.83	1314.80
858.00	1415.15
858.17	1466.35
858.35	1368.04
858.52	1456.11
858.69	1345.52
858.86	1247.21
859.03	1411.05
859.20	1456.11
859.37	1398.76
859.54	1435.63
859.71	1376.24
859.88	1341.42
860.05	1337.32
860.22	1339.37
860.39	1427.43
860.56	1329.13
860.73	1468.39
860.90	1345.52
861.07	1327.08
861.24	1312.75
861.41	1384.43
861.58	1322.99
861.75	1335.28
861.92	1400.81
862.09	1409.00
862.26	1316.84
862.43	1337.32
862.60	1343.47
862.77	1431.53
862.94	1327.08
863.11	1406.95
863.28	1443.82
863.45	1357.80
863.62	1349.61
863.79	1329.13
863.96	1492.97
864.13	1488.87
864.30	1279.98
864.46	1292.27
864.63	1417.19
864.80	1316.84
864.97	1544.17
865.14	1232.88
865.31	1288.17
865.48	1298.41
865.65	1298.41
865.82	1439.72
865.99	1357.80
866.16	1308.65
866.33	1355.76
866.50	1296.36
866.67	1390.57
866.84	1355.76
867.01	1361.90
867.18	1472.49
867.35	1480.68
867.52	1531.88
867.69	1415.15
867.85	1292.27
868.02	1468.39
868.19	1380.33
868.36	1284.08
868.53	1398.76
868.70	1366.00
868.87	1380.33
869.04	1392.62
869.21	1404.91
869.38	1329.13
869.55	1497.07
869.72	1404.91
869.89	1339.37
870.05	1314.80
870.22	1337.32
870.39	1183.73
870.56	1478.63
870.73	1368.04
870.90	1456.11
871.07	1255.40
871.24	1402.86
871.41	1322.99
871.58	1368.04
871.74	1351.66
871.91	1290.22
872.08	1376.24
872.25	1312.75
872.42	1329.13
872.59	1292.27
872.76	1335.28
872.93	1464.30
873.10	1419.24
873.26	1361.90
873.43	1452.01
873.60	1482.73
873.77	1304.56
873.94	1345.52
874.11	1464.30
874.28	1488.87
874.45	1435.63
874.61	1396.71
874.78	1402.86
874.95	1376.24
875.12	1363.95
875.29	1378.28
875.46	1337.32
875.63	1501.16
875.79	1376.24
875.96	1282.03
876.13	1343.47
876.30	1300.46
876.47	1333.23
876.64	1437.67
876.80	1236.97
876.97	1437.67
877.14	1368.04
877.31	1394.67
877.48	1435.63
877.65	1390.57
877.81	1378.28
877.98	1308.65
878.15	1363.95
878.32	1398.76
878.49	1503.21
878.66	1449.96
878.82	1474.54
878.99	1501.16
879.16	1255.40
879.33	1329.13
879.50	1478.63
879.67	1495.02
879.83	1380.33
880.00	1325.04
880.17	1380.33
880.34	1363.95
880.51	1302.51
880.67	1447.91
880.84	1460.20
881.01	1429.48
881.18	1349.61
881.35	1308.65
881.51	1372.14
881.68	1464.30
881.85	1472.49
882.02	1359.85
882.18	1363.95
882.35	1359.85
882.52	1406.95
882.69	1456.11
882.86	1419.24
883.02	1388.52
883.19	1341.42
883.36	1517.54
883.53	1333.23
883.69	1325.04
883.86	1359.85
884.03	1427.43
884.20	1402.86
884.36	1349.61
884.53	1462.25
884.70	1353.71
884.87	1333.23
885.04	1490.92
885.20	1462.25
885.37	1396.71
885.54	1460.20
885.71	1400.81
885.87	1361.90
886.04	1290.22
886.21	1372.14
886.38	1392.62
886.54	1429.48
886.71	1357.80
886.88	1562.60
>>>>>End Processed Spectral Data<<<<<
