SpectraSuite Data File
++++++++++++++++++++++++++++++++++++
Date: Fri May 01 10:29:36 EST 2015
User: ocean
Dark Spectrum Present: No
Reference Spectrum Present: No
Number of Sampled Component Spectra: 1
Spectrometers: USB4E02642
Integration Time (usec): 150000 (USB4E02642)
Spectra Averaged: 1 (USB4E02642)
Boxcar Smoothing: 0 (USB4E02642)
Correct for Electrical Dark: No (USB4E02642)
Strobe/Lamp Enabled: No (USB4E02642)
Correct for Detector Non-linearity: No (USB4E02642)
Correct for Stray Light: No (USB4E02642)
Number of Pixels in Processed Spectrum: 3648
>>>>>Begin Processed Spectral Data<<<<<
179.22	1026.03
179.43	1026.03
179.65	1026.03
179.86	1044.46
180.08	1001.46
180.29	1308.65
180.51	1216.49
180.72	1267.69
180.94	1320.94
181.15	1255.40
181.37	1318.89
181.58	1175.53
181.80	1316.84
182.01	1316.84
182.23	1273.84
182.44	1339.37
182.66	1208.30
182.87	1222.64
183.09	1193.97
183.30	1255.40
183.52	1388.52
183.73	1185.77
183.95	1366.00
184.16	1286.12
184.38	1353.71
184.59	1300.46
184.81	1255.40
185.02	1322.99
185.24	1179.63
185.45	1234.93
185.67	1255.40
185.88	1368.04
186.10	1136.62
186.31	1265.64
186.53	1325.04
186.74	1146.86
186.96	1269.74
187.17	1316.84
187.39	1259.50
187.60	1208.30
187.81	1515.50
188.03	1363.95
188.24	1265.64
188.46	1222.64
188.67	1390.57
188.89	1249.26
189.10	1341.42
189.32	1294.32
189.53	1273.84
189.75	1404.91
189.96	1347.56
190.18	1259.50
190.39	1279.98
190.61	1253.36
190.82	1210.35
191.04	1417.19
191.25	1427.43
191.46	1310.70
191.68	1239.02
191.89	1335.28
192.11	1265.64
192.32	1269.74
192.54	1308.65
192.75	1296.36
192.97	1349.61
193.18	1294.32
193.40	1292.27
193.61	1306.60
193.83	1411.05
194.04	1339.37
194.25	1292.27
194.47	1460.20
194.68	1247.21
194.90	1251.31
195.11	1374.19
195.33	1320.94
195.54	1380.33
195.76	1374.19
195.97	1284.08
196.18	1294.32
196.40	1390.57
196.61	1236.97
196.83	1345.52
197.04	1269.74
197.26	1400.81
197.47	1351.66
197.69	1251.31
197.90	1329.13
198.11	1292.27
198.33	1271.79
198.54	1275.88
198.76	1396.71
198.97	1413.10
199.19	1292.27
199.40	1277.93
199.61	1236.97
199.83	1275.88
200.04	1359.85
200.26	1312.75
200.47	1292.27
200.69	1275.88
200.90	1390.57
201.11	1325.04
201.33	1191.92
201.54	1454.06
201.76	1302.51
201.97	1247.21
202.19	1341.42
202.40	1382.38
202.61	1304.56
202.83	1247.21
203.04	1271.79
203.26	1402.86
203.47	1310.70
203.68	1439.72
203.90	1269.74
204.11	1372.14
204.33	1257.45
204.54	1380.33
204.75	1277.93
204.97	1304.56
205.18	1224.69
205.40	1257.45
205.61	1241.07
205.83	1521.64
206.04	1226.73
206.25	1331.18
206.47	1390.57
206.68	1368.04
206.90	1288.17
207.11	1259.50
207.32	1103.86
207.54	1333.23
207.75	1361.90
207.97	1251.31
208.18	1396.71
208.39	1357.80
208.61	1335.28
208.82	1417.19
209.03	1325.04
209.25	1372.14
209.46	1402.86
209.68	1210.35
209.89	1271.79
210.10	1284.08
210.32	1316.84
210.53	1316.84
210.75	1413.10
210.96	1148.91
211.17	1275.88
211.39	1224.69
211.60	1247.21
211.82	1189.87
212.03	1214.45
212.24	1210.35
212.46	1269.74
212.67	1333.23
212.88	1206.25
213.10	1249.26
213.31	1298.41
213.53	1349.61
213.74	1366.00
213.95	1347.56
214.17	1312.75
214.38	1355.76
214.59	1349.61
214.81	1376.24
215.02	1335.28
215.23	1300.46
215.45	1251.31
215.66	1275.88
215.88	1400.81
216.09	1267.69
216.30	1302.51
216.52	1390.57
216.73	1255.40
216.94	1355.76
217.16	1329.13
217.37	1464.30
217.58	1234.93
217.80	1390.57
218.01	1263.60
218.22	1402.86
218.44	1259.50
218.65	1318.89
218.87	1216.49
219.08	1351.66
219.29	1370.09
219.51	1382.38
219.72	1302.51
219.93	1292.27
220.15	1456.11
220.36	1204.21
220.57	1361.90
220.79	1253.36
221.00	1277.93
221.21	1429.48
221.43	1349.61
221.64	1193.97
221.85	1314.80
222.07	1341.42
222.28	1273.84
222.49	1314.80
222.71	1241.07
222.92	1259.50
223.13	1210.35
223.35	1292.27
223.56	1298.41
223.77	1282.03
223.99	1320.94
224.20	1406.95
224.41	1236.97
224.63	1400.81
224.84	1394.67
225.05	1398.76
225.27	1372.14
225.48	1447.91
225.69	1318.89
225.91	1230.83
226.12	1247.21
226.33	1466.35
226.55	1224.69
226.76	1269.74
226.97	1312.75
227.19	1316.84
227.40	1249.26
227.61	1300.46
227.82	1302.51
228.04	1220.59
228.25	1284.08
228.46	1275.88
228.68	1339.37
228.89	1357.80
229.10	1302.51
229.32	1306.60
229.53	1265.64
229.74	1351.66
229.96	1363.95
230.17	1263.60
230.38	1501.16
230.59	1273.84
230.81	1230.83
231.02	1226.73
231.23	1210.35
231.45	1302.51
231.66	1251.31
231.87	1292.27
232.09	1329.13
232.30	1327.08
232.51	1417.19
232.72	1279.98
232.94	1122.29
233.15	1419.24
233.36	1255.40
233.58	1298.41
233.79	1241.07
234.00	1335.28
234.21	1359.85
234.43	1265.64
234.64	1312.75
234.85	1337.32
235.07	1259.50
235.28	1312.75
235.49	1263.60
235.70	1437.67
235.92	1318.89
236.13	1273.84
236.34	1353.71
236.56	1191.92
236.77	1304.56
236.98	1302.51
237.19	1300.46
237.41	1361.90
237.62	1267.69
237.83	1429.48
238.04	1394.67
238.26	1314.80
238.47	1380.33
238.68	1341.42
238.89	1245.16
239.11	1394.67
239.32	1300.46
239.53	1355.76
239.75	1241.07
239.96	1247.21
240.17	1222.64
240.38	1257.45
240.60	1277.93
240.81	1271.79
241.02	1423.34
241.23	1261.55
241.45	1388.52
241.66	1222.64
241.87	1351.66
242.08	1343.47
242.30	1251.31
242.51	1251.31
242.72	1290.22
242.93	1230.83
243.15	1318.89
243.36	1406.95
243.57	1236.97
243.78	1347.56
244.00	1308.65
244.21	1204.21
244.42	1298.41
244.63	1392.62
244.85	1296.36
245.06	1302.51
245.27	1413.10
245.48	1290.22
245.70	1347.56
245.91	1423.34
246.12	1271.79
246.33	1349.61
246.54	1460.20
246.76	1300.46
246.97	1341.42
247.18	1226.73
247.39	1216.49
247.61	1404.91
247.82	1302.51
248.03	1259.50
248.24	1363.95
248.45	1345.52
248.67	1359.85
248.88	1261.55
249.09	1230.83
249.30	1382.38
249.52	1372.14
249.73	1308.65
249.94	1310.70
250.15	1300.46
250.36	1277.93
250.58	1460.20
250.79	1363.95
251.00	1306.60
251.21	1380.33
251.43	1292.27
251.64	1462.25
251.85	1232.88
252.06	1304.56
252.27	1380.33
252.49	1277.93
252.70	1302.51
252.91	1271.79
253.12	1181.68
253.33	1304.56
253.55	1251.31
253.76	1245.16
253.97	1320.94
254.18	1308.65
254.39	1349.61
254.61	1236.97
254.82	1349.61
255.03	1380.33
255.24	1366.00
255.45	1296.36
255.67	1312.75
255.88	1359.85
256.09	1318.89
256.30	1296.36
256.51	1398.76
256.73	1282.03
256.94	1226.73
257.15	1368.04
257.36	1284.08
257.57	1386.47
257.78	1263.60
258.00	1333.23
258.21	1392.62
258.42	1290.22
258.63	1325.04
258.84	1257.45
259.06	1253.36
259.27	1294.32
259.48	1320.94
259.69	1368.04
259.90	1249.26
260.11	1396.71
260.33	1241.07
260.54	1302.51
260.75	1325.04
260.96	1331.18
261.17	1366.00
261.38	1400.81
261.60	1363.95
261.81	1277.93
262.02	1316.84
262.23	1288.17
262.44	1409.00
262.65	1292.27
262.87	1286.12
263.08	1329.13
263.29	1284.08
263.50	1314.80
263.71	1322.99
263.92	1245.16
264.13	1382.38
264.35	1275.88
264.56	1271.79
264.77	1368.04
264.98	1230.83
265.19	1181.68
265.40	1312.75
265.62	1325.04
265.83	1374.19
266.04	1335.28
266.25	1316.84
266.46	1247.21
266.67	1398.76
266.88	1302.51
267.10	1236.97
267.31	1249.26
267.52	1282.03
267.73	1255.40
267.94	1251.31
268.15	1204.21
268.36	1243.12
268.57	1445.87
268.79	1355.76
269.00	1302.51
269.21	1263.60
269.42	1267.69
269.63	1196.01
269.84	1253.36
270.05	1163.25
270.27	1314.80
270.48	1284.08
270.69	1239.02
270.90	1265.64
271.11	1337.32
271.32	1366.00
271.53	1255.40
271.74	1286.12
271.96	1376.24
272.17	1234.93
272.38	1368.04
272.59	1230.83
272.80	1292.27
273.01	1320.94
273.22	1255.40
273.43	1368.04
273.64	1267.69
273.86	1437.67
274.07	1322.99
274.28	1282.03
274.49	1337.32
274.70	1404.91
274.91	1372.14
275.12	1390.57
275.33	1257.45
275.54	1316.84
275.76	1331.18
275.97	1251.31
276.18	1277.93
276.39	1306.60
276.60	1288.17
276.81	1435.63
277.02	1314.80
277.23	1226.73
277.44	1351.66
277.65	1275.88
277.86	1296.36
278.08	1359.85
278.29	1355.76
278.50	1425.39
278.71	1249.26
278.92	1284.08
279.13	1239.02
279.34	1265.64
279.55	1251.31
279.76	1327.08
279.97	1331.18
280.18	1431.53
280.40	1427.43
280.61	1255.40
280.82	1398.76
281.03	1232.88
281.24	1400.81
281.45	1267.69
281.66	1234.93
281.87	1343.47
282.08	1316.84
282.29	1392.62
282.50	1181.68
282.71	1216.49
282.92	1411.05
283.13	1404.91
283.35	1325.04
283.56	1396.71
283.77	1193.97
283.98	1271.79
284.19	1300.46
284.40	1210.35
284.61	1261.55
284.82	1402.86
285.03	1392.62
285.24	1245.16
285.45	1239.02
285.66	1306.60
285.87	1292.27
286.08	1271.79
286.29	1413.10
286.50	1230.83
286.71	1302.51
286.93	1304.56
287.14	1316.84
287.35	1345.52
287.56	1271.79
287.77	1359.85
287.98	1304.56
288.19	1286.12
288.40	1349.61
288.61	1273.84
288.82	1349.61
289.03	1421.29
289.24	1304.56
289.45	1472.49
289.66	1269.74
289.87	1349.61
290.08	1189.87
290.29	1198.06
290.50	1394.67
290.71	1208.30
290.92	1449.96
291.13	1298.41
291.34	1366.00
291.55	1191.92
291.76	1218.54
291.97	1257.45
292.18	1335.28
292.39	1310.70
292.61	1388.52
292.82	1175.53
293.03	1456.11
293.24	1175.53
293.45	1144.81
293.66	1271.79
293.87	1247.21
294.08	1259.50
294.29	1279.98
294.50	1437.67
294.71	1431.53
294.92	1216.49
295.13	1390.57
295.34	1253.36
295.55	1271.79
295.76	1312.75
295.97	1396.71
296.18	1372.14
296.39	1284.08
296.60	1366.00
296.81	1261.55
297.02	1269.74
297.23	1515.50
297.44	1329.13
297.65	1322.99
297.86	1290.22
298.07	1265.64
298.28	1306.60
298.49	1265.64
298.70	1310.70
298.91	1357.80
299.12	1298.41
299.33	1282.03
299.54	1392.62
299.75	1316.84
299.96	1351.66
300.17	1449.96
300.38	1282.03
300.59	1171.44
300.80	1312.75
301.01	1241.07
301.22	1249.26
301.43	1353.71
301.64	1208.30
301.85	1220.59
302.06	1388.52
302.27	1249.26
302.48	1548.26
302.69	1230.83
302.89	1341.42
303.10	1279.98
303.31	1167.34
303.52	1312.75
303.73	1351.66
303.94	1206.25
304.15	1228.78
304.36	1222.64
304.57	1306.60
304.78	1284.08
304.99	1318.89
305.20	1298.41
305.41	1398.76
305.62	1298.41
305.83	1337.32
306.04	1232.88
306.25	1349.61
306.46	1259.50
306.67	1415.15
306.88	1331.18
307.09	1247.21
307.30	1251.31
307.51	1421.29
307.72	1351.66
307.93	1191.92
308.14	1286.12
308.35	1304.56
308.55	1292.27
308.76	1089.52
308.97	1261.55
309.18	1406.95
309.39	1316.84
309.60	1267.69
309.81	1427.43
310.02	1259.50
310.23	1292.27
310.44	1245.16
310.65	1335.28
310.86	1241.07
311.07	1406.95
311.28	1318.89
311.49	1232.88
311.70	1355.76
311.91	1214.45
312.11	1290.22
312.32	1269.74
312.53	1167.34
312.74	1304.56
312.95	1368.04
313.16	1372.14
313.37	1345.52
313.58	1208.30
313.79	1138.67
314.00	1255.40
314.21	1234.93
314.42	1239.02
314.63	1249.26
314.83	1325.04
315.04	1292.27
315.25	1271.79
315.46	1370.09
315.67	1236.97
315.88	1343.47
316.09	1300.46
316.30	1329.13
316.51	1386.47
316.72	1269.74
316.93	1243.12
317.13	1298.41
317.34	1189.87
317.55	1468.39
317.76	1249.26
317.97	1218.54
318.18	1351.66
318.39	1357.80
318.60	1333.23
318.81	1243.12
319.02	1402.86
319.23	1304.56
319.43	1335.28
319.64	1341.42
319.85	1263.60
320.06	1312.75
320.27	1386.47
320.48	1296.36
320.69	1247.21
320.90	1318.89
321.11	1343.47
321.31	1316.84
321.52	1277.93
321.73	1388.52
321.94	1310.70
322.15	1212.40
322.36	1425.39
322.57	1351.66
322.78	1337.32
322.98	1366.00
323.19	1241.07
323.40	1220.59
323.61	1271.79
323.82	1226.73
324.03	1179.63
324.24	1404.91
324.45	1306.60
324.65	1241.07
324.86	1411.05
325.07	1368.04
325.28	1325.04
325.49	1269.74
325.70	1284.08
325.91	1327.08
326.12	1292.27
326.32	1243.12
326.53	1279.98
326.74	1259.50
326.95	1269.74
327.16	1310.70
327.37	1396.71
327.58	1282.03
327.78	1214.45
327.99	1290.22
328.20	1312.75
328.41	1243.12
328.62	1189.87
328.83	1247.21
329.04	1236.97
329.24	1249.26
329.45	1212.40
329.66	1265.64
329.87	1361.90
330.08	1296.36
330.29	1271.79
330.49	1382.38
330.70	1128.43
330.91	1308.65
331.12	1306.60
331.33	1318.89
331.54	1318.89
331.74	1302.51
331.95	1245.16
332.16	1222.64
332.37	1204.21
332.58	1337.32
332.79	1212.40
332.99	1341.42
333.20	1327.08
333.41	1341.42
333.62	1337.32
333.83	1306.60
334.04	1294.32
334.24	1333.23
334.45	1259.50
334.66	1271.79
334.87	1284.08
335.08	1337.32
335.29	1220.59
335.49	1329.13
335.70	1318.89
335.91	1347.56
336.12	1347.56
336.33	1236.97
336.53	1331.18
336.74	1239.02
336.95	1275.88
337.16	1243.12
337.37	1263.60
337.57	1284.08
337.78	1245.16
337.99	1286.12
338.20	1191.92
338.41	1282.03
338.62	1269.74
338.82	1361.90
339.03	1218.54
339.24	1308.65
339.45	1392.62
339.65	1165.29
339.86	1265.64
340.07	1339.37
340.28	1277.93
340.49	1345.52
340.69	1271.79
340.90	1322.99
341.11	1327.08
341.32	1286.12
341.53	1230.83
341.73	1306.60
341.94	1271.79
342.15	1245.16
342.36	1370.09
342.57	1445.87
342.77	1282.03
342.98	1304.56
343.19	1267.69
343.40	1275.88
343.60	1366.00
343.81	1263.60
344.02	1312.75
344.23	1333.23
344.44	1202.16
344.64	1206.25
344.85	1314.80
345.06	1316.84
345.27	1277.93
345.47	1206.25
345.68	1284.08
345.89	1298.41
346.10	1400.81
346.30	1220.59
346.51	1304.56
346.72	1366.00
346.93	1257.45
347.13	1230.83
347.34	1419.24
347.55	1273.84
347.76	1232.88
347.97	1372.14
348.17	1382.38
348.38	1306.60
348.59	1257.45
348.80	1298.41
349.00	1251.31
349.21	1331.18
349.42	1421.29
349.63	1374.19
349.83	1224.69
350.04	1279.98
350.25	1292.27
350.45	1185.77
350.66	1259.50
350.87	1298.41
351.08	1228.78
351.28	1341.42
351.49	1230.83
351.70	1409.00
351.91	1183.73
352.11	1275.88
352.32	1327.08
352.53	1308.65
352.74	1261.55
352.94	1286.12
353.15	1288.17
353.36	1298.41
353.56	1259.50
353.77	1245.16
353.98	1353.71
354.19	1429.48
354.39	1288.17
354.60	1249.26
354.81	1400.81
355.02	1249.26
355.22	1349.61
355.43	1322.99
355.64	1259.50
355.84	1251.31
356.05	1212.40
356.26	1429.48
356.47	1363.95
356.67	1429.48
356.88	1382.38
357.09	1212.40
357.29	1275.88
357.50	1429.48
357.71	1224.69
357.92	1304.56
358.12	1337.32
358.33	1302.51
358.54	1277.93
358.74	1374.19
358.95	1355.76
359.16	1306.60
359.36	1177.58
359.57	1259.50
359.78	1388.52
359.98	1255.40
360.19	1298.41
360.40	1366.00
360.61	1505.26
360.81	1341.42
361.02	1161.20
361.23	1255.40
361.43	1157.10
361.64	1267.69
361.85	1265.64
362.05	1466.35
362.26	1239.02
362.47	1241.07
362.67	1290.22
362.88	1366.00
363.09	1271.79
363.29	1228.78
363.50	1226.73
363.71	1202.16
363.91	1327.08
364.12	1386.47
364.33	1325.04
364.53	1357.80
364.74	1226.73
364.95	1232.88
365.15	1359.85
365.36	1351.66
365.57	1314.80
365.77	1306.60
365.98	1279.98
366.19	1265.64
366.39	1265.64
366.60	1351.66
366.81	1218.54
367.01	1329.13
367.22	1331.18
367.43	1335.28
367.63	1241.07
367.84	1304.56
368.05	1269.74
368.25	1374.19
368.46	1378.28
368.67	1292.27
368.87	1357.80
369.08	1193.97
369.29	1181.68
369.49	1318.89
369.70	1269.74
369.91	1329.13
370.11	1298.41
370.32	1265.64
370.52	1312.75
370.73	1331.18
370.94	1196.01
371.14	1366.00
371.35	1288.17
371.56	1335.28
371.76	1320.94
371.97	1460.20
372.18	1185.77
372.38	1255.40
372.59	1273.84
372.79	1292.27
373.00	1202.16
373.21	1392.62
373.41	1398.76
373.62	1255.40
373.83	1273.84
374.03	1279.98
374.24	1282.03
374.44	1290.22
374.65	1433.58
374.86	1232.88
375.06	1282.03
375.27	1322.99
375.47	1359.85
375.68	1353.71
375.89	1310.70
376.09	1357.80
376.30	1302.51
376.50	1308.65
376.71	1447.91
376.92	1232.88
377.12	1341.42
377.33	1386.47
377.54	1300.46
377.74	1370.09
377.95	1447.91
378.15	1282.03
378.36	1325.04
378.57	1406.95
378.77	1363.95
378.98	1267.69
379.18	1247.21
379.39	1322.99
379.59	1292.27
379.80	1298.41
380.01	1267.69
380.21	1316.84
380.42	1294.32
380.62	1298.41
380.83	1187.82
381.04	1275.88
381.24	1312.75
381.45	1382.38
381.65	1335.28
381.86	1253.36
382.06	1454.06
382.27	1368.04
382.48	1292.27
382.68	1382.38
382.89	1366.00
383.09	1458.15
383.30	1214.45
383.51	1392.62
383.71	1425.39
383.92	1261.55
384.12	1298.41
384.33	1310.70
384.53	1243.12
384.74	1337.32
384.94	1333.23
385.15	1366.00
385.36	1282.03
385.56	1251.31
385.77	1339.37
385.97	1245.16
386.18	1271.79
386.38	1296.36
386.59	1286.12
386.79	1329.13
387.00	1249.26
387.21	1388.52
387.41	1464.30
387.62	1390.57
387.82	1251.31
388.03	1296.36
388.23	1243.12
388.44	1306.60
388.64	1320.94
388.85	1355.76
389.06	1339.37
389.26	1419.24
389.47	1292.27
389.67	1318.89
389.88	1445.87
390.08	1232.88
390.29	1370.09
390.49	1347.56
390.70	1490.92
390.90	1341.42
391.11	1239.02
391.31	1376.24
391.52	1300.46
391.72	1335.28
391.93	1308.65
392.13	1363.95
392.34	1263.60
392.55	1458.15
392.75	1431.53
392.96	1279.98
393.16	1425.39
393.37	1339.37
393.57	1294.32
393.78	1273.84
393.98	1349.61
394.19	1419.24
394.39	1382.38
394.60	1425.39
394.80	1320.94
395.01	1445.87
395.21	1388.52
395.42	1419.24
395.62	1257.45
395.83	1308.65
396.03	1366.00
396.24	1437.67
396.44	1404.91
396.65	1423.34
396.85	1316.84
397.06	1394.67
397.26	1327.08
397.47	1290.22
397.67	1433.58
397.88	1355.76
398.08	1366.00
398.29	1355.76
398.49	1302.51
398.70	1322.99
398.90	1216.49
399.11	1296.36
399.31	1423.34
399.52	1337.32
399.72	1339.37
399.93	1413.10
400.13	1349.61
400.34	1431.53
400.54	1402.86
400.75	1366.00
400.95	1374.19
401.15	1505.26
401.36	1349.61
401.56	1288.17
401.77	1378.28
401.97	1279.98
402.18	1361.90
402.38	1347.56
402.59	1378.28
402.79	1398.76
403.00	1349.61
403.20	1302.51
403.41	1398.76
403.61	1271.79
403.82	1404.91
404.02	1331.18
404.22	1376.24
404.43	1335.28
404.63	1382.38
404.84	1400.81
405.04	1296.36
405.25	1308.65
405.45	1300.46
405.66	1400.81
405.86	1372.14
406.07	1497.07
406.27	1339.37
406.47	1388.52
406.68	1314.80
406.88	1390.57
407.09	1384.43
407.29	1394.67
407.50	1320.94
407.70	1322.99
407.91	1290.22
408.11	1488.87
408.31	1368.04
408.52	1415.15
408.72	1386.47
408.93	1372.14
409.13	1404.91
409.34	1554.41
409.54	1417.19
409.74	1427.43
409.95	1378.28
410.15	1339.37
410.36	1322.99
410.56	1341.42
410.77	1443.82
410.97	1325.04
411.17	1443.82
411.38	1390.57
411.58	1437.67
411.79	1435.63
411.99	1370.09
412.19	1378.28
412.40	1419.24
412.60	1548.26
412.81	1388.52
413.01	1488.87
413.22	1449.96
413.42	1390.57
413.62	1501.16
413.83	1458.15
414.03	1366.00
414.24	1511.40
414.44	1501.16
414.64	1388.52
414.85	1445.87
415.05	1495.02
415.26	1417.19
415.46	1472.49
415.66	1355.76
415.87	1411.05
416.07	1419.24
416.28	1366.00
416.48	1511.40
416.68	1486.83
416.89	1476.59
417.09	1480.68
417.29	1441.77
417.50	1497.07
417.70	1435.63
417.91	1452.01
418.11	1341.42
418.31	1462.25
418.52	1415.15
418.72	1382.38
418.93	1423.34
419.13	1433.58
419.33	1427.43
419.54	1411.05
419.74	1370.09
419.94	1488.87
420.15	1425.39
420.35	1482.73
420.56	1472.49
420.76	1423.34
420.96	1372.14
421.17	1460.20
421.37	1538.02
421.57	1492.97
421.78	1396.71
421.98	1474.54
422.18	1542.12
422.39	1507.30
422.59	1441.77
422.80	1421.29
423.00	1464.30
423.20	1423.34
423.41	1486.83
423.61	1527.78
423.81	1470.44
424.02	1597.42
424.22	1503.21
424.42	1542.12
424.63	1517.54
424.83	1515.50
425.03	1546.22
425.24	1497.07
425.44	1492.97
425.64	1468.39
425.85	1466.35
426.05	1460.20
426.25	1449.96
426.46	1482.73
426.66	1499.11
426.86	1591.27
427.07	1476.59
427.27	1525.74
427.47	1755.11
427.68	1468.39
427.88	1548.26
428.08	1667.05
428.29	1439.72
428.49	1476.59
428.69	1630.18
428.90	1394.67
429.10	1452.01
429.30	1529.83
429.51	1558.50
429.71	1626.09
429.91	1497.07
430.12	1556.46
430.32	1708.01
430.52	1533.93
430.72	1474.54
430.93	1636.33
431.13	1521.64
431.33	1644.52
431.54	1611.75
431.74	1513.45
431.94	1452.01
432.15	1560.55
432.35	1591.27
432.55	1529.83
432.76	1495.02
432.96	1527.78
433.16	1511.40
433.36	1595.37
433.57	1595.37
433.77	1617.90
433.97	1503.21
434.18	1632.23
434.38	1611.75
434.58	1648.61
434.78	1552.36
434.99	1591.27
435.19	1681.38
435.39	1439.72
435.60	1624.04
435.80	1753.06
436.00	1601.51
436.20	1642.47
436.41	1595.37
436.61	1595.37
436.81	1624.04
437.02	1648.61
437.22	1601.51
437.42	1603.56
437.62	1601.51
437.83	1730.53
438.03	1644.52
438.23	1587.18
438.43	1673.19
438.64	1677.29
438.84	1599.46
439.04	1656.81
439.25	1687.53
439.45	1705.96
439.65	1589.22
439.85	1683.43
440.06	1570.79
440.26	1619.94
440.46	1746.92
440.66	1736.68
440.87	1697.77
441.07	1650.66
441.27	1728.49
441.47	1693.67
441.68	1648.61
441.88	1693.67
442.08	1652.71
442.28	1675.24
442.49	1675.24
442.69	1832.93
442.89	1669.09
443.09	1603.56
443.30	1607.66
443.50	1648.61
443.70	1652.71
443.90	1660.90
444.10	1798.12
444.31	1804.26
444.51	1566.70
444.71	1718.25
444.91	1740.77
445.12	1685.48
445.32	1861.60
445.52	1710.05
445.72	1585.13
445.93	1644.52
446.13	1777.64
446.33	1728.49
446.53	1800.16
446.73	1632.23
446.94	1568.74
447.14	1609.70
447.34	1572.84
447.54	1773.54
447.74	1642.47
447.95	1757.16
448.15	1679.33
448.35	1677.29
448.55	1671.14
448.76	1624.04
448.96	1730.53
449.16	1617.90
449.36	1783.78
449.56	1599.46
449.77	1726.44
449.97	1728.49
450.17	1636.33
450.37	1742.82
450.57	1693.67
450.78	1769.44
450.98	1691.62
451.18	1748.97
451.38	1652.71
451.58	1685.48
451.79	1595.37
451.99	1662.95
452.19	1710.05
452.39	1779.68
452.59	1660.90
452.79	1720.29
453.00	1681.38
453.20	1775.59
453.40	1708.01
453.60	1812.45
453.80	1738.73
454.01	1697.77
454.21	1718.25
454.41	1660.90
454.61	1748.97
454.81	1853.41
455.01	1742.82
455.22	1775.59
455.42	1763.30
455.62	1945.57
455.82	1689.57
456.02	1724.39
456.22	1748.97
456.43	1814.50
456.63	1730.53
456.83	1824.74
457.03	1804.26
457.23	1785.83
457.43	1769.44
457.64	1751.01
457.84	1736.68
458.04	1814.50
458.24	1755.11
458.44	1800.16
458.64	1771.49
458.84	1816.55
459.05	1722.34
459.25	1789.92
459.45	1775.59
459.65	1824.74
459.85	1761.25
460.05	1755.11
460.25	1814.50
460.46	1914.85
460.66	1800.16
460.86	1896.42
461.06	1853.41
461.26	1789.92
461.46	1791.97
461.66	1902.56
461.87	1916.90
462.07	1894.37
462.27	1886.18
462.47	1832.93
462.67	1927.14
462.87	1951.71
463.07	1877.99
463.27	1884.13
463.48	1761.25
463.68	1794.02
463.88	1884.13
464.08	1871.84
464.28	1867.75
464.48	1785.83
464.68	1808.36
464.88	1857.51
465.08	1920.99
465.29	2017.25
465.49	1800.16
465.69	1906.66
465.89	1910.75
466.09	1918.95
466.29	1914.85
466.49	1875.94
466.69	1814.50
466.89	1832.93
467.10	2066.40
467.30	2019.30
467.50	2125.79
467.70	1964.00
467.90	1914.85
468.10	2058.21
468.30	1865.70
468.50	1955.81
468.70	1986.53
468.90	2066.40
469.10	1951.71
469.31	2015.20
469.51	2058.21
469.71	2011.11
469.91	2021.35
470.11	2007.01
470.31	2000.87
470.51	2011.11
470.71	1978.34
470.91	2072.54
471.11	2080.74
471.31	2052.06
471.51	2174.94
471.71	1994.72
471.92	2136.03
472.12	2078.69
472.32	2123.74
472.52	2174.94
472.72	2121.70
472.92	2144.22
473.12	2181.09
473.32	2074.59
473.52	2263.01
473.72	2260.96
473.92	2217.95
474.12	2373.60
474.32	2209.76
474.52	2303.96
474.72	2234.33
474.92	2287.58
475.13	2346.97
475.33	2351.07
475.53	2310.11
475.73	2359.26
475.93	2306.01
476.13	2351.07
476.33	2344.92
476.53	2447.32
476.73	2410.46
476.93	2412.51
477.13	2514.91
477.33	2490.33
477.53	2553.82
477.73	2783.19
477.93	2535.39
478.13	2695.13
478.33	2676.70
478.53	2699.22
478.73	2895.83
478.93	2809.81
479.13	2801.62
479.33	2746.33
479.53	2936.79
479.73	3002.32
479.93	2895.83
480.13	3092.43
480.33	3307.47
480.53	3164.11
480.73	3274.70
480.93	3237.84
481.13	3250.13
481.34	3305.42
481.54	3483.59
481.74	3495.88
481.94	3577.80
482.14	3723.21
482.34	3708.87
482.54	3813.32
482.74	4028.35
482.94	4014.02
483.14	4227.01
483.34	4276.16
483.54	4208.58
483.74	4446.14
483.94	4544.44
484.14	4550.59
484.34	4761.53
484.54	4913.08
484.74	5089.20
484.94	5142.45
485.14	5291.95
485.34	5535.66
485.54	5676.97
485.74	5814.18
485.93	6010.79
486.13	6188.96
486.33	6240.16
486.53	6485.92
486.73	6899.61
486.93	7092.12
487.13	7358.35
487.33	7731.08
487.53	7833.48
487.73	8300.42
487.93	8236.93
488.13	8877.94
488.33	8990.58
488.53	9490.29
488.73	9934.70
488.93	10305.38
489.13	10471.26
489.33	11245.40
489.53	11444.05
489.73	12017.48
489.93	12302.15
490.13	12896.06
490.33	13655.86
490.53	13922.09
490.73	14636.83
490.93	14964.51
491.13	15533.84
491.33	16121.61
491.53	16641.79
491.73	17245.94
491.93	17872.62
492.12	18435.81
492.32	18554.60
492.52	19635.92
492.72	19769.04
492.92	20475.59
493.12	21118.65
493.32	21731.00
493.52	22124.21
493.72	22521.51
493.92	23088.80
494.12	23592.60
494.32	23842.45
494.52	24141.46
494.72	24671.88
494.92	24989.31
495.12	25390.72
495.31	25740.92
495.51	26005.11
495.71	26510.96
495.91	26664.55
496.11	26627.69
496.31	26678.89
496.51	26525.29
496.71	26664.55
496.91	26312.30
497.11	26824.29
497.31	26594.92
497.51	26678.89
497.71	26513.00
497.90	26484.33
498.10	25966.20
498.30	25595.51
498.50	25491.07
498.70	25081.47
498.90	24788.61
499.10	24295.05
499.30	23793.30
499.50	23537.30
499.70	22740.64
499.89	22431.40
500.09	22013.62
500.29	21061.31
500.49	21092.03
500.69	20258.51
500.89	19746.51
501.09	18982.62
501.29	18501.35
501.49	18132.72
501.69	17266.42
501.88	16754.43
502.08	16070.41
502.28	15570.71
502.48	14991.13
502.68	14296.87
502.88	13971.24
503.08	13434.68
503.28	12650.30
503.47	11962.19
503.67	11626.32
503.87	11175.77
504.07	10635.10
504.27	10196.84
504.47	9582.45
504.67	9166.71
504.87	8705.92
505.06	8132.48
505.26	7780.23
505.46	7456.65
505.66	7182.23
505.86	6762.39
506.06	6602.65
506.26	6254.50
506.45	5967.78
506.65	5846.95
506.85	5490.60
507.05	5308.34
507.25	5003.19
507.45	4913.08
507.65	4913.08
507.84	4523.96
508.04	4515.77
508.24	4327.36
508.44	4487.10
508.64	4186.05
508.84	4003.78
509.04	4069.31
509.23	4030.40
509.43	3940.29
509.63	3864.52
509.83	3848.13
510.03	3841.99
510.23	3745.73
510.42	3803.08
510.62	3811.27
510.82	3784.65
511.02	3817.41
511.22	3753.93
511.42	3651.53
511.61	3749.83
511.81	3864.52
512.01	3684.30
512.21	3663.82
512.41	3643.34
512.60	3678.15
512.80	3782.60
513.00	3741.64
513.20	3622.86
513.40	3536.84
513.60	3764.17
513.79	3737.54
513.99	3854.28
514.19	3708.87
514.39	3676.10
514.59	3735.50
514.78	3770.31
514.98	3848.13
515.18	3864.52
515.38	3909.57
515.58	3891.14
515.77	3704.78
515.97	3723.21
516.17	3825.61
516.37	3846.09
516.57	3999.68
516.76	3868.61
516.96	3907.52
517.16	3952.58
517.36	3821.51
517.56	3934.15
517.75	3897.28
517.95	3862.47
518.15	3950.53
518.35	3743.69
518.55	3946.44
518.74	3901.38
518.94	4104.13
519.14	3923.91
519.34	3973.06
519.53	3952.58
519.73	3991.49
519.93	3993.54
520.13	4069.31
520.32	4091.84
520.52	3968.96
520.72	4204.48
520.92	4016.07
521.12	4100.03
521.31	4200.38
521.51	4038.59
521.71	4196.29
521.91	4104.13
522.10	4120.51
522.30	4091.84
522.50	4204.48
522.70	4241.34
522.89	4069.31
523.09	4261.82
523.29	4134.85
523.49	4247.49
523.68	4231.10
523.88	4157.38
524.08	4317.12
524.28	4296.64
524.47	4184.00
524.67	4399.04
524.87	4224.96
525.07	4241.34
525.26	4210.62
525.46	4440.00
525.66	4388.80
525.86	4345.79
526.05	4388.80
526.25	4321.21
526.45	4190.14
526.64	4253.63
526.84	4270.01
527.04	4255.68
527.24	4229.06
527.43	4157.38
527.63	4376.51
527.83	4370.37
528.03	4204.48
528.22	4325.31
528.42	4370.37
528.62	4499.39
528.81	4200.38
529.01	4356.03
529.21	4233.15
529.41	4464.57
529.60	4306.88
529.80	4470.72
530.00	4351.93
530.19	4198.34
530.39	4384.70
530.59	4534.20
530.79	4190.14
530.98	4214.72
531.18	4329.41
531.38	4251.58
531.57	4278.21
531.77	4478.91
531.97	4423.61
532.16	4306.88
532.36	4356.03
532.56	4315.07
532.76	4319.17
532.95	4386.75
533.15	4458.43
533.35	4323.26
533.54	4493.24
533.74	4513.72
533.94	4376.51
534.13	4323.26
534.33	4523.96
534.53	4472.76
534.72	4409.28
534.92	4509.63
535.12	4319.17
535.31	4378.56
535.51	4360.13
535.71	4290.49
535.90	4630.46
536.10	4386.75
536.30	4405.18
536.49	4468.67
536.69	4382.65
536.89	4388.80
537.08	4487.10
537.28	4382.65
537.48	4425.66
537.67	4452.28
537.87	4478.91
538.07	4437.95
538.26	4315.07
538.46	4431.80
538.66	4472.76
538.85	4440.00
539.05	4816.82
539.25	4403.13
539.44	4523.96
539.64	4511.68
539.84	4642.75
540.03	4421.56
540.23	4612.03
540.42	4437.95
540.62	4646.84
540.82	4626.36
541.01	4480.96
541.21	4515.77
541.41	4345.79
541.60	4464.57
541.80	4564.92
542.00	4476.86
542.19	4591.55
542.39	4517.82
542.58	4462.52
542.78	4501.44
542.98	4476.86
543.17	4534.20
543.37	4521.92
543.57	4646.84
543.76	4718.52
543.96	4499.39
544.15	4655.03
544.35	4448.19
544.55	4476.86
544.74	4609.98
544.94	4800.44
545.13	4691.90
545.33	4812.73
545.53	4603.83
545.72	4736.95
545.92	4638.65
546.11	4612.03
546.31	4726.71
546.51	4593.59
546.70	4790.20
546.90	4747.19
547.09	4583.35
547.29	4804.53
547.49	4759.48
547.68	4769.72
547.88	4835.25
548.07	4763.58
548.27	4876.21
548.47	4677.56
548.66	4861.88
548.86	4800.44
549.05	4773.82
549.25	4876.21
549.45	4722.62
549.64	4790.20
549.84	4718.52
550.03	5007.28
550.23	5083.06
550.42	4892.60
550.62	4847.54
550.82	4814.77
551.01	4929.46
551.21	4792.25
551.40	4962.23
551.60	4913.08
551.79	4972.47
551.99	4868.02
552.19	4976.56
552.38	4896.69
552.58	5119.92
552.77	5035.96
552.97	5062.58
553.16	5017.52
553.36	5031.86
553.55	4929.46
553.75	5056.43
553.95	5031.86
554.14	5273.52
554.34	5040.05
554.53	5193.65
554.73	5158.83
554.92	5191.60
555.12	5085.11
555.31	5015.48
555.51	5148.59
555.70	5064.63
555.90	5271.47
556.09	5023.67
556.29	5212.08
556.49	5046.20
556.68	5038.00
556.88	4982.71
557.07	4995.00
557.27	5097.39
557.46	5380.01
557.66	5250.99
557.85	5253.04
558.05	5314.48
558.24	5228.46
558.44	5210.03
558.63	5183.41
558.83	5177.26
559.02	5220.27
559.22	5078.96
559.41	5375.92
559.61	5339.05
559.80	5343.15
560.00	5203.89
560.19	5248.94
560.39	5187.50
560.58	5470.12
560.78	5318.57
560.97	5302.19
561.17	5169.07
561.36	5351.34
561.56	5328.81
561.75	5265.33
561.95	5281.71
562.14	5382.06
562.34	5265.33
562.53	5291.95
562.73	5312.43
562.92	5248.94
563.12	5373.87
563.31	5410.73
563.51	5373.87
563.70	5504.94
563.90	5193.65
564.09	5298.10
564.29	5289.90
564.48	5183.41
564.68	5408.69
564.87	5388.21
565.07	5185.46
565.26	5246.90
565.46	5302.19
565.65	5259.18
565.85	5201.84
566.04	5308.34
566.24	5390.25
566.43	5386.16
566.63	5181.36
566.82	5189.55
567.01	5271.47
567.21	5162.93
567.40	5433.26
567.60	5148.59
567.79	5361.58
567.99	5357.49
568.18	5339.05
568.38	5265.33
568.57	5365.68
568.77	5230.51
568.96	5326.77
569.15	5322.67
569.35	5318.57
569.54	5523.37
569.74	5189.55
569.93	5158.83
570.13	5320.62
570.32	5244.85
570.52	5320.62
570.71	5435.31
570.90	5214.13
571.10	5216.18
571.29	5269.42
571.49	5273.52
571.68	5162.93
571.88	5386.16
572.07	5199.79
572.26	5318.57
572.46	5185.46
572.65	5326.77
572.85	5296.05
573.04	5240.75
573.24	5199.79
573.43	5373.87
573.62	5365.68
573.82	5349.29
574.01	5212.08
574.21	5320.62
574.40	5148.59
574.59	5236.66
574.79	5326.77
574.98	5373.87
575.18	5183.41
575.37	5408.69
575.56	5236.66
575.76	5203.89
575.95	5201.84
576.15	5244.85
576.34	5222.32
576.53	5240.75
576.73	5449.64
576.92	5228.46
577.12	5138.35
577.31	5533.61
577.50	5046.20
577.70	5140.40
577.89	5185.46
578.09	5416.88
578.28	5294.00
578.47	5193.65
578.67	5392.30
578.86	5334.96
579.06	5320.62
579.25	5294.00
579.44	5134.26
579.64	5332.91
579.83	5230.51
580.02	5296.05
580.22	5269.42
580.41	5281.71
580.61	5185.46
580.80	5337.01
580.99	5195.70
581.19	5306.29
581.38	5277.62
581.57	5330.86
581.77	5238.70
581.96	5257.14
582.15	5183.41
582.35	5224.37
582.54	5238.70
582.73	5361.58
582.93	5339.05
583.12	5357.49
583.32	5361.58
583.51	5246.90
583.70	5271.47
583.90	5470.12
584.09	5433.26
584.28	5377.97
584.48	5343.15
584.67	5386.16
584.86	5228.46
585.06	5435.31
585.25	5267.38
585.44	5443.50
585.64	5294.00
585.83	5517.23
586.02	5494.70
586.22	5154.74
586.41	5308.34
586.60	5261.23
586.80	5248.94
586.99	5308.34
587.18	5347.25
587.38	5230.51
587.57	5496.75
587.76	5459.88
587.96	5345.20
588.15	5445.55
588.34	5246.90
588.53	5476.27
588.73	5347.25
588.92	5478.32
589.11	5418.93
589.31	5369.77
589.50	5406.64
589.69	5392.30
589.89	5564.33
590.08	5394.35
590.27	5410.73
590.47	5574.57
590.66	5302.19
590.85	5320.62
591.04	5402.54
591.24	5494.70
591.43	5500.84
591.62	5375.92
591.82	5474.22
592.01	5384.11
592.20	5388.21
592.39	5601.19
592.59	5441.45
592.78	5394.35
592.97	5566.38
593.17	5556.14
593.36	5369.77
593.55	5314.48
593.74	5519.28
593.94	5400.49
594.13	5359.53
594.32	5476.27
594.52	5408.69
594.71	5638.06
594.90	5429.17
595.09	5400.49
595.29	5470.12
595.48	5408.69
595.67	5314.48
595.86	5388.21
596.06	5500.84
596.25	5298.10
596.44	5339.05
596.63	5248.94
596.83	5318.57
597.02	5406.64
597.21	5273.52
597.40	5533.61
597.60	5572.52
597.79	5375.92
597.98	5189.55
598.17	5377.97
598.37	5443.50
598.56	5353.39
598.75	5386.16
598.94	5437.36
599.14	5312.43
599.33	5302.19
599.52	5308.34
599.71	5447.60
599.91	5361.58
600.10	5179.31
600.29	5406.64
600.48	5306.29
600.68	5435.31
600.87	5267.38
601.06	5349.29
601.25	5386.16
601.44	5167.03
601.64	5140.40
601.83	5394.35
602.02	5310.38
602.21	5375.92
602.41	5257.14
602.60	5160.88
602.79	5285.81
602.98	5375.92
603.17	5246.90
603.37	5269.42
603.56	5287.86
603.75	5050.29
603.94	5199.79
604.13	5119.92
604.33	5453.74
604.52	5074.87
604.71	5248.94
604.90	5218.22
605.09	5398.45
605.29	5371.82
605.48	5320.62
605.67	5255.09
605.86	5226.42
606.05	5199.79
606.25	5021.62
606.44	5138.35
606.63	5210.03
606.82	5218.22
607.01	5222.32
607.20	5201.84
607.40	5343.15
607.59	5296.05
607.78	5089.20
607.97	5124.02
608.16	5216.18
608.36	5117.87
608.55	4978.61
608.74	5142.45
608.93	5253.04
609.12	5140.40
609.31	4988.85
609.51	4984.76
609.70	5146.55
609.89	5214.13
610.08	4941.75
610.27	4974.52
610.46	4919.22
610.66	4982.71
610.85	4923.32
611.04	5234.61
611.23	5126.07
611.42	5031.86
611.61	4972.47
611.80	4919.22
612.00	5011.38
612.19	5250.99
612.38	5031.86
612.57	5070.77
612.76	5130.16
612.95	5246.90
613.14	5142.45
613.34	4892.60
613.53	5040.05
613.72	4964.28
613.91	5027.76
614.10	5191.60
614.29	4937.65
614.48	4966.32
614.67	4992.95
614.87	5070.77
615.06	4980.66
615.25	5259.18
615.44	5064.63
615.63	4841.40
615.82	5062.58
616.01	5027.76
616.20	5072.82
616.40	5126.07
616.59	4925.36
616.78	4863.93
616.97	5124.02
617.16	4976.56
617.35	4984.76
617.54	5246.90
617.73	5093.30
617.92	5046.20
618.12	5003.19
618.31	5062.58
618.50	4984.76
618.69	4888.50
618.88	4997.04
619.07	4865.97
619.26	4990.90
619.45	5025.72
619.64	4956.08
619.83	4958.13
620.02	4878.26
620.22	4902.84
620.41	4874.17
620.60	4972.47
620.79	4999.09
620.98	4812.73
621.17	4796.34
621.36	5109.68
621.55	4931.51
621.74	5076.91
621.93	4949.94
622.12	5087.15
622.31	5064.63
622.51	5060.53
622.70	5019.57
622.89	5091.25
623.08	5031.86
623.27	5042.10
623.46	4915.12
623.65	4937.65
623.84	4880.31
624.03	4951.99
624.22	5167.03
624.41	5050.29
624.60	4851.64
624.79	4919.22
624.98	5078.96
625.17	5038.00
625.36	4949.94
625.55	5040.05
625.74	4997.04
625.94	5058.48
626.13	4927.41
626.32	4917.17
626.51	5107.63
626.70	4886.45
626.89	4919.22
627.08	5009.33
627.27	5019.57
627.46	5019.57
627.65	4857.78
627.84	4917.17
628.03	5029.81
628.22	5070.77
628.41	5091.25
628.60	4927.41
628.79	4870.07
628.98	4945.84
629.17	4876.21
629.36	4972.47
629.55	4925.36
629.74	5003.19
629.93	4915.12
630.12	5062.58
630.31	5093.30
630.50	4976.56
630.69	5167.03
630.88	5113.78
631.07	5038.00
631.26	5076.91
631.45	5052.34
631.64	5105.59
631.83	5072.82
632.02	5103.54
632.21	4997.04
632.40	5375.92
632.59	5294.00
632.78	4954.04
632.97	5038.00
633.16	5175.22
633.35	5083.06
633.54	5132.21
633.73	5048.24
633.92	5050.29
634.11	5124.02
634.30	5040.05
634.49	4919.22
634.68	5097.39
634.87	5081.01
635.06	5031.86
635.25	5019.57
635.44	5250.99
635.63	5044.15
635.82	5179.31
636.01	5068.72
636.20	5355.44
636.39	5269.42
636.58	5265.33
636.77	5134.26
636.96	5044.15
637.15	5275.57
637.34	5250.99
637.53	5361.58
637.72	5230.51
637.91	5201.84
638.09	5318.57
638.28	5287.86
638.47	5164.98
638.66	5416.88
638.85	5191.60
639.04	5214.13
639.23	5334.96
639.42	5451.69
639.61	5353.39
639.80	5253.04
639.99	5275.57
640.18	5310.38
640.37	5556.14
640.56	5324.72
640.75	5156.79
640.94	5167.03
641.13	5318.57
641.32	5400.49
641.50	5404.59
641.69	5324.72
641.88	5347.25
642.07	5457.84
642.26	5420.97
642.45	5375.92
642.64	5543.85
642.83	5486.51
643.02	5625.77
643.21	5318.57
643.40	5506.99
643.59	5416.88
643.77	5449.64
643.96	5627.82
644.15	5605.29
644.34	5646.25
644.53	5443.50
644.72	5466.03
644.91	5590.95
645.10	5535.66
645.29	5513.13
645.48	5463.98
645.67	5560.24
645.85	5613.48
646.04	5521.32
646.23	5533.61
646.42	5597.10
646.61	5519.28
646.80	5502.89
646.99	5472.17
647.18	5580.71
647.37	5427.12
647.55	5590.95
647.74	5683.11
647.93	5605.29
648.12	5691.31
648.31	5748.65
648.50	5746.60
648.69	5681.07
648.88	5638.06
649.06	5470.12
649.25	5529.52
649.44	5494.70
649.63	5511.08
649.82	5603.24
650.01	5646.25
650.20	5640.11
650.39	5506.99
650.57	5760.94
650.76	5652.39
650.95	5627.82
651.14	5529.52
651.33	5685.16
651.52	5593.00
651.70	5715.88
651.89	5724.07
652.08	5382.06
652.27	5697.45
652.46	5674.92
652.65	5492.65
652.84	5689.26
653.02	5500.84
653.21	5511.08
653.40	5459.88
653.59	5433.26
653.78	5441.45
653.97	5380.01
654.15	5578.67
654.34	5550.00
654.53	5517.23
654.72	5408.69
654.91	5498.80
655.10	5281.71
655.28	5552.04
655.47	5406.64
655.66	5451.69
655.85	5420.97
656.04	5353.39
656.23	5339.05
656.41	5427.12
656.60	5318.57
656.79	5547.95
656.98	5367.73
657.17	5334.96
657.35	5320.62
657.54	5257.14
657.73	5314.48
657.92	5224.37
658.11	5291.95
658.29	4908.98
658.48	5105.59
658.67	5173.17
658.86	5224.37
659.05	5111.73
659.23	4958.13
659.42	5011.38
659.61	5076.91
659.80	4976.56
659.99	4929.46
660.17	4935.60
660.36	4906.93
660.55	4874.17
660.74	4906.93
660.92	4835.25
661.11	4741.05
661.30	4706.23
661.49	4757.43
661.68	4716.47
661.86	4835.25
662.05	4839.35
662.24	4732.86
662.43	4673.46
662.61	4642.75
662.80	4652.98
662.99	4507.58
663.18	4560.83
663.37	4556.73
663.55	4601.79
663.74	4616.12
663.93	4437.95
664.12	4646.84
664.30	4489.15
664.49	4464.57
664.68	4468.67
664.87	4218.82
665.05	4399.04
665.24	4399.04
665.43	4487.10
665.62	4323.26
665.80	4460.48
665.99	4386.75
666.18	4331.45
666.37	4325.31
666.55	4298.69
666.74	4190.14
666.93	4300.73
667.11	4171.71
667.30	4065.22
667.49	4151.23
667.68	4257.73
667.86	4149.18
668.05	4298.69
668.24	4140.99
668.43	4097.99
668.61	4124.61
668.80	4278.21
668.99	4042.69
669.17	4222.91
669.36	4157.38
669.55	4194.24
669.74	4007.87
669.92	4061.12
670.11	4118.47
670.30	4192.19
670.48	4042.69
670.67	4085.70
670.86	4022.21
671.05	4147.14
671.23	4134.85
671.42	4005.83
671.61	4054.98
671.79	4026.31
671.98	4034.50
672.17	3932.10
672.35	3995.59
672.54	3989.44
672.73	3995.59
672.91	3950.53
673.10	3725.26
673.29	3923.91
673.48	3946.44
673.66	3919.81
673.85	4126.66
674.04	3968.96
674.22	4128.70
674.41	3909.57
674.60	4050.88
674.78	3839.94
674.97	3952.58
675.16	3936.20
675.34	3917.76
675.53	3897.28
675.72	4124.61
675.90	4052.93
676.09	3909.57
676.28	4063.17
676.46	3919.81
676.65	4022.21
676.84	4083.65
677.02	4085.70
677.21	4011.97
677.40	4059.07
677.58	4106.18
677.77	4071.36
677.95	3979.20
678.14	4104.13
678.33	3868.61
678.51	4042.69
678.70	4151.23
678.89	4067.27
679.07	4145.09
679.26	3964.87
679.45	4233.15
679.63	4171.71
679.82	4267.97
680.01	4132.80
680.19	4093.89
680.38	4351.93
680.56	4237.25
680.75	4255.68
680.94	4319.17
681.12	4227.01
681.31	4317.12
681.50	4341.69
681.68	4253.63
681.87	4360.13
682.05	4421.56
682.24	4614.07
682.43	4452.28
682.61	4450.24
682.80	4462.52
682.98	4487.10
683.17	4618.17
683.36	4601.79
683.54	4528.06
683.73	4575.16
683.91	4685.75
684.10	4532.15
684.29	4792.25
684.47	4720.57
684.66	4669.37
684.84	4743.10
685.03	4675.51
685.22	4677.56
685.40	4763.58
685.59	4898.74
685.77	5093.30
685.96	4978.61
686.15	4970.42
686.33	4943.80
686.52	4927.41
686.70	5103.54
686.89	5179.31
687.07	5144.50
687.26	4997.04
687.45	5242.80
687.63	5119.92
687.82	5228.46
688.00	5289.90
688.19	5388.21
688.37	5238.70
688.56	5412.78
688.75	5500.84
688.93	5642.15
689.12	5468.08
689.30	5674.92
689.49	5582.76
689.67	5572.52
689.86	5615.53
690.04	5556.14
690.23	5562.28
690.42	5726.12
690.60	5863.33
690.79	5715.88
690.97	6059.94
691.16	5734.31
691.34	5863.33
691.53	5955.49
691.71	5978.02
691.90	5941.16
692.08	5910.44
692.27	6035.36
692.45	6078.37
692.64	6141.86
692.83	6279.07
693.01	6211.49
693.20	6141.86
693.38	6053.80
693.57	6297.50
693.75	6242.21
693.94	6358.94
694.12	6447.01
694.31	6348.70
694.49	6487.96
694.68	6264.74
694.86	6498.20
695.05	6563.74
695.23	6629.27
695.42	6698.91
695.60	6625.18
695.79	6447.01
695.97	6621.08
696.16	6653.85
696.34	6535.07
696.53	6885.27
696.71	6733.72
696.90	6623.13
697.08	6907.80
697.27	6993.81
697.45	6780.82
697.64	6862.74
697.82	7059.35
698.01	6995.86
698.19	7040.92
698.38	6946.71
698.56	7231.38
698.75	6952.85
698.93	7161.75
699.12	7243.67
699.30	7161.75
699.49	7284.62
699.67	7116.69
699.86	7196.56
700.04	7223.19
700.22	7440.27
700.41	7260.05
700.59	7389.07
700.78	7141.27
700.96	7372.69
701.15	7358.35
701.33	7350.16
701.52	7223.19
701.70	7389.07
701.89	7509.90
702.07	7442.32
702.26	7397.26
702.44	7532.43
702.62	7573.39
702.81	7485.33
702.99	7468.94
703.18	7645.07
703.36	7593.87
703.55	7675.79
703.73	7724.94
703.92	7700.36
704.10	7557.00
704.28	7751.56
704.47	7913.35
704.65	7851.91
704.84	7878.54
705.02	7649.16
705.21	7704.46
705.39	7706.51
705.57	7741.32
705.76	7817.10
705.94	8032.13
706.13	7808.90
706.31	7686.03
706.50	7868.30
706.68	7769.99
706.86	7950.21
707.05	8007.56
707.23	7731.08
707.42	8071.04
707.60	7954.31
707.78	7976.84
707.97	7876.49
708.15	8093.57
708.34	7886.73
708.52	8005.51
708.70	8044.42
708.89	7849.86
709.07	7899.02
709.26	8054.66
709.44	8099.72
709.62	8095.62
709.81	8025.99
709.99	8179.59
710.18	8058.76
710.36	8003.46
710.54	7970.69
710.73	7978.89
710.91	8064.90
711.10	8054.66
711.28	7966.60
711.46	8017.80
711.65	8052.61
711.83	8038.28
712.01	8173.44
712.20	7942.02
712.38	8007.56
712.57	8273.79
712.75	8093.57
712.93	8202.11
713.12	8337.28
713.30	8136.58
713.48	7952.26
713.67	8013.70
713.85	8114.05
714.03	8290.18
714.22	8193.92
714.40	8159.11
714.58	8116.10
714.77	8238.98
714.95	8214.40
715.14	8230.79
715.32	8277.89
715.50	8261.51
715.69	8236.93
715.87	8052.61
716.05	8181.64
716.24	8099.72
716.42	8124.29
716.60	8030.09
716.79	8052.61
716.97	8255.36
717.15	8193.92
717.34	8152.96
717.52	8120.20
717.70	8066.95
717.89	8034.18
718.07	8079.24
718.25	8019.85
718.44	8132.48
718.62	8128.39
718.80	8140.68
718.98	8136.58
719.17	7987.08
719.35	8142.72
719.53	8140.68
719.72	8136.58
719.90	8157.06
720.08	7950.21
720.27	8032.13
720.45	8023.94
720.63	8140.68
720.82	8081.28
721.00	7968.65
721.18	7864.20
721.36	8087.43
721.55	8105.86
721.73	7929.74
721.91	8069.00
722.10	7913.35
722.28	7942.02
722.46	8062.85
722.64	7907.21
722.83	7921.54
723.01	8112.00
723.19	7839.62
723.38	8048.52
723.56	7995.27
723.74	7862.15
723.92	7956.36
724.11	8159.11
724.29	7944.07
724.47	7952.26
724.65	7911.30
724.84	7856.01
725.02	8112.00
725.20	8101.76
725.39	7972.74
725.57	8028.04
725.75	7952.26
725.93	7991.17
726.12	7903.11
726.30	7698.31
726.48	7862.15
726.66	7944.07
726.85	7765.90
727.03	7933.83
727.21	7692.17
727.39	7899.02
727.58	7948.17
727.76	7753.61
727.94	7802.76
728.12	7780.23
728.30	7800.71
728.49	7774.09
728.67	7673.74
728.85	7772.04
729.03	7737.23
729.22	7843.72
729.40	7782.28
729.58	7653.26
729.76	7622.54
729.95	7716.75
730.13	7628.68
730.31	7765.90
730.49	7671.69
730.67	7722.89
730.86	7739.27
731.04	7606.16
731.22	7610.25
731.40	7694.22
731.58	7663.50
731.77	7856.01
731.95	7645.07
732.13	7573.39
732.31	7487.37
732.50	7630.73
732.68	7389.07
732.86	7735.18
733.04	7538.57
733.22	7456.65
733.40	7430.03
733.59	7364.50
733.77	7309.20
733.95	7407.50
734.13	7419.79
734.31	7548.81
734.50	7399.31
734.68	7653.26
734.86	7311.25
735.04	7266.19
735.22	7301.01
735.41	7470.99
735.59	7194.51
735.77	7272.34
735.95	7321.49
736.13	7360.40
736.31	7346.06
736.50	7227.28
736.68	7563.15
736.86	7225.23
737.04	7456.65
737.22	7407.50
737.40	7454.61
737.59	7294.86
737.77	7358.35
737.95	7057.30
738.13	7194.51
738.31	7427.98
738.49	7163.79
738.67	7108.50
738.86	7026.58
739.04	7110.55
739.22	7098.26
739.40	7214.99
739.58	7155.60
739.76	7098.26
739.94	7118.74
740.13	7141.27
740.31	7036.82
740.49	7141.27
740.67	7118.74
740.85	6821.78
741.03	6846.36
741.21	7145.36
741.39	6817.69
741.58	6999.96
741.76	6963.09
741.94	6934.42
742.12	6946.71
742.30	6827.93
742.48	6889.37
742.66	6772.63
742.84	6739.87
743.03	6729.63
743.21	6815.64
743.39	6631.32
743.57	6938.52
743.75	6709.15
743.93	6684.57
744.11	6756.25
744.29	6600.60
744.47	6715.29
744.65	6676.38
744.84	6698.91
745.02	6485.92
745.20	6500.25
745.38	6639.51
745.56	6465.44
745.74	6471.58
745.92	6563.74
746.10	6576.03
746.28	6322.08
746.46	6479.77
746.64	6303.65
746.82	6522.78
747.01	6307.74
747.19	6461.34
747.37	6551.45
747.55	6354.85
747.73	6397.85
747.91	6162.34
748.09	6393.76
748.27	6268.83
748.45	6252.45
748.63	6311.84
748.81	6213.54
748.99	6158.24
749.17	6301.60
749.35	6297.50
749.53	6057.89
749.72	6322.08
749.90	6035.36
750.08	6201.25
750.26	6084.52
750.44	6195.11
750.62	6234.02
750.80	5969.83
750.98	6158.24
751.16	6012.84
751.34	6059.94
751.52	5978.02
751.70	6109.09
751.88	6002.60
752.06	6148.00
752.24	5965.73
752.42	6043.56
752.60	6033.32
752.78	5918.63
752.96	5863.33
753.14	5969.83
753.32	5918.63
753.50	6121.38
753.68	5834.66
753.86	5984.16
754.04	5781.42
754.22	5943.21
754.40	6018.98
754.58	5822.38
754.76	5824.42
754.94	5863.33
755.12	6002.60
755.30	5883.81
755.48	5791.66
755.66	5900.20
755.84	5793.70
756.02	5810.09
756.20	5724.07
756.38	5795.75
756.56	5750.70
756.74	5822.38
756.92	6023.08
757.10	5658.54
757.28	5769.13
757.46	5816.23
757.64	5840.81
757.82	5781.42
758.00	5715.88
758.18	5808.04
758.36	5629.87
758.54	5724.07
758.72	5625.77
758.90	5623.72
759.08	5775.27
759.26	5754.79
759.44	5533.61
759.62	5703.59
759.80	5619.63
759.98	5552.04
760.16	5443.50
760.34	5486.51
760.52	5795.75
760.70	5640.11
760.88	5537.71
761.06	5527.47
761.24	5572.52
761.42	5502.89
761.60	5767.08
761.77	5310.38
761.95	5617.58
762.13	5658.54
762.31	5617.58
762.49	5500.84
762.67	5586.86
762.85	5453.74
763.03	5392.30
763.21	5420.97
763.39	5367.73
763.57	5656.49
763.75	5392.30
763.93	5531.56
764.11	5277.62
764.29	5394.35
764.46	5441.45
764.64	5416.88
764.82	5302.19
765.00	5420.97
765.18	5283.76
765.36	5285.81
765.54	5330.86
765.72	5146.55
765.90	5259.18
766.08	5132.21
766.26	5113.78
766.44	5154.74
766.61	5050.29
766.79	5187.50
766.97	5203.89
767.15	5164.98
767.33	5095.35
767.51	5113.78
767.69	5156.79
767.87	5148.59
768.05	5001.14
768.22	5023.67
768.40	5281.71
768.58	5005.24
768.76	4841.40
768.94	5042.10
769.12	4947.89
769.30	4986.80
769.48	4956.08
769.66	5035.96
769.83	4886.45
770.01	4964.28
770.19	4995.00
770.37	5093.30
770.55	4870.07
770.73	4960.18
770.91	4929.46
771.09	4784.06
771.26	4517.82
771.44	4982.71
771.62	4757.43
771.80	4847.54
771.98	4951.99
772.16	4810.68
772.34	4872.12
772.51	4503.48
772.69	4913.08
772.87	4786.10
773.05	4695.99
773.23	4634.55
773.41	4652.98
773.58	4794.29
773.76	4587.45
773.94	4726.71
774.12	4753.34
774.30	4652.98
774.48	4579.26
774.65	4464.57
774.83	4628.41
775.01	4683.70
775.19	4513.72
775.37	4485.05
775.55	4569.02
775.72	4487.10
775.90	4616.12
776.08	4450.24
776.26	4716.47
776.44	4523.96
776.61	4392.89
776.79	4503.48
776.97	4364.22
777.15	4411.32
777.33	4353.98
777.51	4300.73
777.68	4310.97
777.86	4298.69
778.04	4440.00
778.22	4360.13
778.40	4313.02
778.57	4233.15
778.75	4204.48
778.93	4233.15
779.11	4368.32
779.29	4284.35
779.46	4145.09
779.64	4198.34
779.82	4370.37
780.00	4087.75
780.17	4251.58
780.35	4175.81
780.53	4237.25
780.71	4278.21
780.89	4079.55
781.06	4001.73
781.24	4210.62
781.42	4136.90
781.60	4224.96
781.77	4208.58
781.95	4181.95
782.13	4227.01
782.31	4138.94
782.48	4196.29
782.66	3981.25
782.84	4167.62
783.02	4120.51
783.19	4106.18
783.37	4016.07
783.55	4114.37
783.73	4005.83
783.90	3948.48
784.08	4042.69
784.26	4106.18
784.44	3997.64
784.61	4067.27
784.79	4175.81
784.97	3913.67
785.15	4106.18
785.32	3846.09
785.50	4061.12
785.68	4032.45
785.86	3997.64
786.03	3940.29
786.21	4024.26
786.39	3975.11
786.57	3987.40
786.74	3858.37
786.92	3905.48
787.10	3876.80
787.27	3932.10
787.45	3936.20
787.63	3821.51
787.81	3958.72
787.98	3936.20
788.16	3866.56
788.34	3981.25
788.51	3860.42
788.69	3788.74
788.87	3864.52
789.04	3893.19
789.22	3936.20
789.40	3798.98
789.58	3696.58
789.75	3788.74
789.93	3833.80
790.11	3770.31
790.28	3823.56
790.46	3917.76
790.64	3864.52
790.81	3719.11
790.99	3649.48
791.17	3854.28
791.34	3731.40
791.52	3672.01
791.70	3753.93
791.87	3764.17
792.05	3766.21
792.23	3596.23
792.40	3626.95
792.58	3489.74
792.76	3633.10
792.93	3715.02
793.11	3665.86
793.29	3729.35
793.46	3751.88
793.64	3620.81
793.82	3585.99
793.99	3557.32
794.17	3502.03
794.35	3528.65
794.52	3600.33
794.70	3651.53
794.88	3864.52
795.05	3565.51
795.23	3475.40
795.41	3571.66
795.58	3487.69
795.76	3516.36
795.94	3504.07
796.11	3571.66
796.29	3608.52
796.46	3620.81
796.64	3518.41
796.82	3487.69
796.99	3454.92
797.17	3327.95
797.35	3479.50
797.52	3538.89
797.70	3567.56
797.87	3641.29
798.05	3727.30
798.23	3557.32
798.40	3585.99
798.58	3461.07
798.76	3424.20
798.93	3475.40
799.11	3454.92
799.28	3456.97
799.46	3399.63
799.64	3340.24
799.81	3461.07
799.99	3418.06
800.16	3354.57
800.34	3389.39
800.52	3373.00
800.69	3463.12
800.87	3438.54
801.04	3438.54
801.22	3407.82
801.39	3538.89
801.57	3221.45
801.75	3305.42
801.92	3461.07
802.10	3264.46
802.27	3338.19
802.45	3418.06
802.63	3336.14
802.80	3542.99
802.98	3321.81
803.15	3262.41
803.33	3282.89
803.50	3209.17
803.68	3391.44
803.86	3344.33
804.03	3338.19
804.21	3409.87
804.38	3327.95
804.56	3565.51
804.73	3395.53
804.91	3108.82
805.08	3291.09
805.26	3305.42
805.44	3444.68
805.61	3231.69
805.79	3256.27
805.96	3266.51
806.14	3299.28
806.31	3205.07
806.49	3342.28
806.66	3286.99
806.84	3219.41
807.01	3354.57
807.19	3330.00
807.36	3203.02
807.54	3289.04
807.71	3209.17
807.89	3121.10
808.07	3217.36
808.24	3127.25
808.42	3086.29
808.59	3258.32
808.77	3119.06
808.94	3315.66
809.12	3246.03
809.29	3155.92
809.47	3125.20
809.64	3141.58
809.82	3145.68
809.99	3209.17
810.17	3190.74
810.34	3174.35
810.52	2994.13
810.69	3057.62
810.87	3200.98
811.04	3045.33
811.22	3250.13
811.39	3110.86
811.57	3059.67
811.74	3098.58
811.92	3037.14
812.09	3200.98
812.27	3086.29
812.44	2942.93
812.62	3155.92
812.79	3160.02
812.97	3121.10
813.14	3071.95
813.31	2834.39
813.49	3065.81
813.66	3037.14
813.84	3022.80
814.01	3112.91
814.19	3086.29
814.36	3071.95
814.54	2979.79
814.71	2932.69
814.89	3102.67
815.06	2973.65
815.24	3012.56
815.41	3033.04
815.58	3061.71
815.76	3102.67
815.93	3086.29
816.11	3084.24
816.28	2783.19
816.46	3098.58
816.63	2963.41
816.81	3004.37
816.98	2908.12
817.15	3012.56
817.33	3037.14
817.50	2899.92
817.68	2838.48
817.85	2983.89
818.03	2920.40
818.20	2797.53
818.37	2797.53
818.55	2852.82
818.72	2861.01
818.90	2899.92
819.07	2969.55
819.25	2994.13
819.42	2815.96
819.59	2701.27
819.77	2787.29
819.94	2914.26
820.12	2965.46
820.29	3008.47
820.46	2885.59
820.64	2926.55
820.81	2805.72
820.99	2914.26
821.16	2836.44
821.33	2908.12
821.51	2961.36
821.68	2852.82
821.86	3061.71
822.03	2803.67
822.20	2822.10
822.38	2658.26
822.55	2895.83
822.73	2762.71
822.90	2811.86
823.07	2717.65
823.25	2734.04
823.42	2695.13
823.59	2783.19
823.77	2725.85
823.94	2725.85
824.12	2750.42
824.29	2656.22
824.46	2701.27
824.64	2813.91
824.81	2727.89
824.98	2738.13
825.16	2705.37
825.33	2570.20
825.50	2703.32
825.68	2707.41
825.85	2729.94
826.03	2633.69
826.20	2752.47
826.37	2701.27
826.55	2682.84
826.72	2629.59
826.89	2639.83
827.07	2625.50
827.24	2670.55
827.41	2615.26
827.59	2648.02
827.76	2652.12
827.93	2643.93
828.11	2559.96
828.28	2650.07
828.45	2705.37
828.63	2621.40
828.80	2570.20
828.97	2617.30
829.15	2623.45
829.32	2574.30
829.49	2635.74
829.67	2455.51
829.84	2568.15
830.01	2553.82
830.18	2611.16
830.36	2631.64
830.53	2519.00
830.70	2611.16
830.88	2539.48
831.05	2613.21
831.22	2674.65
831.40	2478.04
831.57	2363.36
831.74	2645.98
831.91	2527.19
832.09	2572.25
832.26	2447.32
832.43	2504.67
832.61	2566.10
832.78	2453.47
832.95	2416.60
833.13	2498.52
833.30	2533.34
833.47	2500.57
833.64	2437.08
833.82	2570.20
833.99	2332.64
834.16	2418.65
834.33	2437.08
834.51	2512.86
834.68	2533.34
834.85	2426.84
835.03	2471.90
835.20	2418.65
835.37	2435.03
835.54	2328.54
835.72	2498.52
835.89	2322.40
836.06	2437.08
836.23	2414.56
836.41	2256.86
836.58	2428.89
836.75	2447.32
836.92	2265.05
837.10	2256.86
837.27	2332.64
837.44	2336.73
837.61	2283.49
837.78	2455.51
837.96	2365.40
838.13	2303.96
838.30	2346.97
838.47	2545.63
838.65	2185.18
838.82	2346.97
838.99	2357.21
839.16	2242.53
839.34	2312.16
839.51	2324.44
839.68	2320.35
839.85	2291.68
840.02	2273.25
840.20	2187.23
840.37	2244.57
840.54	2246.62
840.71	2467.80
840.88	2316.25
841.06	2273.25
841.23	2355.16
841.40	2299.87
841.57	2291.68
841.74	2254.81
841.92	2283.49
842.09	2248.67
842.26	2242.53
842.43	2189.28
842.60	2166.75
842.78	2217.95
842.95	2162.66
843.12	2297.82
843.29	2176.99
843.46	2246.62
843.64	2199.52
843.81	2146.27
843.98	2240.48
844.15	2258.91
844.32	2123.74
844.49	2097.12
844.67	2258.91
844.84	2160.61
845.01	2115.55
845.18	2131.94
845.35	2127.84
845.52	1986.53
845.70	2250.72
845.87	2191.33
846.04	2265.05
846.21	2056.16
846.38	2332.64
846.55	2086.88
846.72	2133.98
846.90	2007.01
847.07	2068.45
847.24	2217.95
847.41	2207.71
847.58	2037.73
847.75	2158.56
847.92	2105.31
848.10	2088.93
848.27	1968.10
848.44	2109.41
848.61	2086.88
848.78	2045.92
848.95	1992.67
849.12	2039.78
849.29	2045.92
849.47	2037.73
849.64	2015.20
849.81	2097.12
849.98	2164.70
850.15	2076.64
850.32	2086.88
850.49	2029.54
850.66	1902.56
850.84	2017.25
851.01	1732.58
851.18	2031.58
851.35	1927.14
851.52	2064.35
851.69	2039.78
851.86	2078.69
852.03	1896.42
852.20	1947.62
852.37	2056.16
852.54	2054.11
852.72	1933.28
852.89	2074.59
853.06	1970.15
853.23	1982.43
853.40	1955.81
853.57	1875.94
853.74	1957.86
853.91	1968.10
854.08	1830.88
854.25	1812.45
854.42	1943.52
854.59	1947.62
854.76	1941.47
854.94	1859.56
855.11	1972.19
855.28	1798.12
855.45	1920.99
855.62	1937.38
855.79	1959.91
855.96	1859.56
856.13	1761.25
856.30	1769.44
856.47	1990.63
856.64	1929.19
856.81	1808.36
856.98	1898.47
857.15	1861.60
857.32	1701.86
857.49	1896.42
857.66	1796.07
857.83	1898.47
858.00	1914.85
858.17	1832.93
858.35	1865.70
858.52	1871.84
858.69	1783.78
858.86	1705.96
859.03	1855.46
859.20	1822.69
859.37	1763.30
859.54	1832.93
859.71	1865.70
859.88	1798.12
860.05	1734.63
860.22	1837.03
860.39	1914.85
860.56	1808.36
860.73	1841.12
860.90	1769.44
861.07	1806.31
861.24	1791.97
861.41	1794.02
861.58	1681.38
861.75	1722.34
861.92	1777.64
862.09	1763.30
862.26	1742.82
862.43	1753.06
862.60	1796.07
862.77	1759.21
862.94	1755.11
863.11	1720.29
863.28	1877.99
863.45	1712.10
863.62	1724.39
863.79	1574.89
863.96	1882.08
864.13	1894.37
864.30	1636.33
864.46	1722.34
864.63	1757.16
864.80	1687.53
864.97	1859.56
865.14	1624.04
865.31	1585.13
865.48	1722.34
865.65	1736.68
865.82	1769.44
865.99	1751.01
866.16	1773.54
866.33	1652.71
866.50	1681.38
866.67	1800.16
866.84	1724.39
867.01	1658.85
867.18	1744.87
867.35	1845.22
867.52	1914.85
867.69	1710.05
867.85	1607.66
868.02	1718.25
868.19	1693.67
868.36	1650.66
868.53	1718.25
868.70	1742.82
868.87	1693.67
869.04	1691.62
869.21	1726.44
869.38	1585.13
869.55	1798.12
869.72	1712.10
869.89	1611.75
870.05	1578.98
870.22	1656.81
870.39	1509.35
870.56	1785.83
870.73	1683.43
870.90	1787.88
871.07	1697.77
871.24	1699.81
871.41	1646.57
871.58	1626.09
871.74	1484.78
871.91	1609.70
872.08	1734.63
872.25	1581.03
872.42	1611.75
872.59	1521.64
872.76	1673.19
872.93	1703.91
873.10	1611.75
873.26	1628.14
873.43	1699.81
873.60	1669.09
873.77	1437.67
873.94	1560.55
874.11	1687.53
874.28	1728.49
874.45	1634.28
874.61	1486.83
874.78	1607.66
874.95	1669.09
875.12	1644.52
875.29	1572.84
875.46	1542.12
875.63	1677.29
875.79	1673.19
875.96	1540.07
876.13	1597.42
876.30	1531.88
876.47	1531.88
876.64	1568.74
876.80	1556.46
876.97	1564.65
877.14	1640.42
877.31	1716.20
877.48	1609.70
877.65	1556.46
877.81	1550.31
877.98	1570.79
878.15	1626.09
878.32	1583.08
878.49	1634.28
878.66	1603.56
878.82	1683.43
878.99	1720.29
879.16	1535.98
879.33	1531.88
879.50	1566.70
879.67	1613.80
879.83	1517.54
880.00	1501.16
880.17	1523.69
880.34	1593.32
880.51	1527.78
880.67	1548.26
880.84	1630.18
881.01	1669.09
881.18	1589.22
881.35	1568.74
881.51	1554.41
881.68	1642.47
881.85	1613.80
882.02	1519.59
882.18	1531.88
882.35	1535.98
882.52	1521.64
882.69	1552.36
882.86	1470.44
883.02	1503.21
883.19	1517.54
883.36	1611.75
883.53	1474.54
883.69	1572.84
883.86	1460.20
884.03	1599.46
884.20	1470.44
884.36	1564.65
884.53	1583.08
884.70	1478.63
884.87	1497.07
885.04	1703.91
885.20	1558.50
885.37	1550.31
885.54	1548.26
885.71	1558.50
885.87	1558.50
886.04	1415.15
886.21	1517.54
886.38	1642.47
886.54	1548.26
886.71	1523.69
886.88	1613.80
>>>>>End Processed Spectral Data<<<<<
