SpectraSuite Data File
++++++++++++++++++++++++++++++++++++
Date: Fri May 01 10:31:19 EST 2015
User: ocean
Dark Spectrum Present: No
Reference Spectrum Present: No
Number of Sampled Component Spectra: 1
Spectrometers: USB4E02642
Integration Time (usec): 150000 (USB4E02642)
Spectra Averaged: 1 (USB4E02642)
Boxcar Smoothing: 0 (USB4E02642)
Correct for Electrical Dark: No (USB4E02642)
Strobe/Lamp Enabled: No (USB4E02642)
Correct for Detector Non-linearity: No (USB4E02642)
Correct for Stray Light: No (USB4E02642)
Number of Pixels in Processed Spectrum: 3648
>>>>>Begin Processed Spectral Data<<<<<
179.22	972.79
179.43	972.79
179.65	972.79
179.86	1011.70
180.08	1058.80
180.29	1331.18
180.51	1230.83
180.72	1331.18
180.94	1271.79
181.15	1271.79
181.37	1335.28
181.58	1236.97
181.80	1247.21
182.01	1259.50
182.23	1339.37
182.44	1271.79
182.66	1247.21
182.87	1320.94
183.09	1284.08
183.30	1239.02
183.52	1349.61
183.73	1275.88
183.95	1329.13
184.16	1214.45
184.38	1275.88
184.59	1257.45
184.81	1308.65
185.02	1290.22
185.24	1224.69
185.45	1320.94
185.67	1304.56
185.88	1335.28
186.10	1150.96
186.31	1265.64
186.53	1327.08
186.74	1296.36
186.96	1325.04
187.17	1316.84
187.39	1325.04
187.60	1232.88
187.81	1456.11
188.03	1327.08
188.24	1300.46
188.46	1200.11
188.67	1449.96
188.89	1247.21
189.10	1398.76
189.32	1329.13
189.53	1376.24
189.75	1310.70
189.96	1380.33
190.18	1322.99
190.39	1310.70
190.61	1267.69
190.82	1185.77
191.04	1409.00
191.25	1378.28
191.46	1325.04
191.68	1249.26
191.89	1308.65
192.11	1300.46
192.32	1193.97
192.54	1214.45
192.75	1218.54
192.97	1406.95
193.18	1363.95
193.40	1308.65
193.61	1306.60
193.83	1380.33
194.04	1327.08
194.25	1392.62
194.47	1376.24
194.68	1296.36
194.90	1345.52
195.11	1378.28
195.33	1279.98
195.54	1357.80
195.76	1423.34
195.97	1312.75
196.18	1300.46
196.40	1300.46
196.61	1290.22
196.83	1384.43
197.04	1216.49
197.26	1497.07
197.47	1359.85
197.69	1204.21
197.90	1325.04
198.11	1290.22
198.33	1253.36
198.54	1320.94
198.76	1439.72
198.97	1282.03
199.19	1335.28
199.40	1230.83
199.61	1220.59
199.83	1249.26
200.04	1314.80
200.26	1347.56
200.47	1337.32
200.69	1193.97
200.90	1343.47
201.11	1355.76
201.33	1269.74
201.54	1349.61
201.76	1376.24
201.97	1239.02
202.19	1353.71
202.40	1449.96
202.61	1275.88
202.83	1208.30
203.04	1409.00
203.26	1374.19
203.47	1339.37
203.68	1433.58
203.90	1269.74
204.11	1394.67
204.33	1269.74
204.54	1345.52
204.75	1320.94
204.97	1255.40
205.18	1277.93
205.40	1259.50
205.61	1306.60
205.83	1460.20
206.04	1234.93
206.25	1363.95
206.47	1357.80
206.68	1437.67
206.90	1271.79
207.11	1255.40
207.32	1136.62
207.54	1372.14
207.75	1386.47
207.97	1165.29
208.18	1271.79
208.39	1284.08
208.61	1355.76
208.82	1396.71
209.03	1359.85
209.25	1400.81
209.46	1335.28
209.68	1353.71
209.89	1214.45
210.10	1345.52
210.32	1318.89
210.53	1290.22
210.75	1433.58
210.96	1286.12
211.17	1263.60
211.39	1316.84
211.60	1298.41
211.82	1243.12
212.03	1353.71
212.24	1234.93
212.46	1359.85
212.67	1296.36
212.88	1198.06
213.10	1363.95
213.31	1312.75
213.53	1378.28
213.74	1337.32
213.95	1363.95
214.17	1325.04
214.38	1402.86
214.59	1255.40
214.81	1394.67
215.02	1374.19
215.23	1302.51
215.45	1269.74
215.66	1282.03
215.88	1316.84
216.09	1232.88
216.30	1325.04
216.52	1204.21
216.73	1165.29
216.94	1384.43
217.16	1298.41
217.37	1333.23
217.58	1269.74
217.80	1511.40
218.01	1398.76
218.22	1361.90
218.44	1273.84
218.65	1292.27
218.87	1243.12
219.08	1343.47
219.29	1292.27
219.51	1421.29
219.72	1267.69
219.93	1413.10
220.15	1388.52
220.36	1253.36
220.57	1355.76
220.79	1271.79
221.00	1267.69
221.21	1415.15
221.43	1327.08
221.64	1261.55
221.85	1236.97
222.07	1335.28
222.28	1316.84
222.49	1363.95
222.71	1284.08
222.92	1292.27
223.13	1175.53
223.35	1277.93
223.56	1333.23
223.77	1312.75
223.99	1329.13
224.20	1353.71
224.41	1257.45
224.63	1388.52
224.84	1329.13
225.05	1421.29
225.27	1363.95
225.48	1480.68
225.69	1263.60
225.91	1230.83
226.12	1261.55
226.33	1470.44
226.55	1271.79
226.76	1236.97
226.97	1263.60
227.19	1333.23
227.40	1300.46
227.61	1300.46
227.82	1329.13
228.04	1183.73
228.25	1302.51
228.46	1263.60
228.68	1396.71
228.89	1378.28
229.10	1230.83
229.32	1417.19
229.53	1318.89
229.74	1472.49
229.96	1404.91
230.17	1292.27
230.38	1435.63
230.59	1282.03
230.81	1261.55
231.02	1206.25
231.23	1124.33
231.45	1386.47
231.66	1267.69
231.87	1236.97
232.09	1480.68
232.30	1218.54
232.51	1329.13
232.72	1286.12
232.94	1226.73
233.15	1409.00
233.36	1267.69
233.58	1329.13
233.79	1239.02
234.00	1343.47
234.21	1320.94
234.43	1247.21
234.64	1343.47
234.85	1372.14
235.07	1333.23
235.28	1382.38
235.49	1189.87
235.70	1406.95
235.92	1339.37
236.13	1325.04
236.34	1423.34
236.56	1191.92
236.77	1239.02
236.98	1304.56
237.19	1316.84
237.41	1376.24
237.62	1357.80
237.83	1396.71
238.04	1351.66
238.26	1302.51
238.47	1394.67
238.68	1421.29
238.89	1329.13
239.11	1413.10
239.32	1318.89
239.53	1298.41
239.75	1175.53
239.96	1292.27
240.17	1347.56
240.38	1300.46
240.60	1265.64
240.81	1302.51
241.02	1322.99
241.23	1325.04
241.45	1357.80
241.66	1271.79
241.87	1282.03
242.08	1421.29
242.30	1279.98
242.51	1316.84
242.72	1271.79
242.93	1341.42
243.15	1286.12
243.36	1386.47
243.57	1413.10
243.78	1378.28
244.00	1339.37
244.21	1265.64
244.42	1404.91
244.63	1308.65
244.85	1204.21
245.06	1333.23
245.27	1363.95
245.48	1318.89
245.70	1316.84
245.91	1378.28
246.12	1249.26
246.33	1273.84
246.54	1423.34
246.76	1265.64
246.97	1284.08
247.18	1286.12
247.39	1263.60
247.61	1452.01
247.82	1296.36
248.03	1333.23
248.24	1335.28
248.45	1304.56
248.67	1312.75
248.88	1349.61
249.09	1331.18
249.30	1320.94
249.52	1425.39
249.73	1404.91
249.94	1316.84
250.15	1339.37
250.36	1374.19
250.58	1458.15
250.79	1370.09
251.00	1329.13
251.21	1339.37
251.43	1259.50
251.64	1452.01
251.85	1322.99
252.06	1296.36
252.27	1366.00
252.49	1374.19
252.70	1316.84
252.91	1304.56
253.12	1265.64
253.33	1402.86
253.55	1282.03
253.76	1255.40
253.97	1331.18
254.18	1308.65
254.39	1341.42
254.61	1306.60
254.82	1316.84
255.03	1368.04
255.24	1243.12
255.45	1325.04
255.67	1322.99
255.88	1357.80
256.09	1267.69
256.30	1216.49
256.51	1413.10
256.73	1316.84
256.94	1218.54
257.15	1382.38
257.36	1294.32
257.57	1406.95
257.78	1290.22
258.00	1337.32
258.21	1433.58
258.42	1308.65
258.63	1290.22
258.84	1277.93
259.06	1292.27
259.27	1333.23
259.48	1308.65
259.69	1325.04
259.90	1236.97
260.11	1415.15
260.33	1222.64
260.54	1337.32
260.75	1345.52
260.96	1290.22
261.17	1298.41
261.38	1374.19
261.60	1374.19
261.81	1290.22
262.02	1394.67
262.23	1286.12
262.44	1382.38
262.65	1378.28
262.87	1279.98
263.08	1419.24
263.29	1296.36
263.50	1267.69
263.71	1263.60
263.92	1267.69
264.13	1417.19
264.35	1335.28
264.56	1341.42
264.77	1435.63
264.98	1273.84
265.19	1159.15
265.40	1279.98
265.62	1296.36
265.83	1374.19
266.04	1347.56
266.25	1347.56
266.46	1277.93
266.67	1302.51
266.88	1370.09
267.10	1269.74
267.31	1402.86
267.52	1271.79
267.73	1329.13
267.94	1273.84
268.15	1335.28
268.36	1271.79
268.57	1435.63
268.79	1363.95
269.00	1284.08
269.21	1271.79
269.42	1286.12
269.63	1312.75
269.84	1286.12
270.05	1243.12
270.27	1243.12
270.48	1298.41
270.69	1208.30
270.90	1333.23
271.11	1419.24
271.32	1376.24
271.53	1220.59
271.74	1255.40
271.96	1312.75
272.17	1220.59
272.38	1374.19
272.59	1177.58
272.80	1284.08
273.01	1325.04
273.22	1259.50
273.43	1394.67
273.64	1185.77
273.86	1454.06
274.07	1249.26
274.28	1292.27
274.49	1351.66
274.70	1273.84
274.91	1292.27
275.12	1488.87
275.33	1239.02
275.54	1304.56
275.76	1263.60
275.97	1322.99
276.18	1282.03
276.39	1368.04
276.60	1263.60
276.81	1341.42
277.02	1374.19
277.23	1261.55
277.44	1331.18
277.65	1251.31
277.86	1288.17
278.08	1376.24
278.29	1376.24
278.50	1390.57
278.71	1275.88
278.92	1275.88
279.13	1271.79
279.34	1382.38
279.55	1314.80
279.76	1380.33
279.97	1249.26
280.18	1456.11
280.40	1368.04
280.61	1277.93
280.82	1320.94
281.03	1320.94
281.24	1413.10
281.45	1337.32
281.66	1304.56
281.87	1318.89
282.08	1269.74
282.29	1359.85
282.50	1234.93
282.71	1218.54
282.92	1476.59
283.13	1320.94
283.35	1316.84
283.56	1277.93
283.77	1232.88
283.98	1308.65
284.19	1361.90
284.40	1261.55
284.61	1282.03
284.82	1396.71
285.03	1402.86
285.24	1298.41
285.45	1265.64
285.66	1279.98
285.87	1329.13
286.08	1171.44
286.29	1388.52
286.50	1355.76
286.71	1230.83
286.93	1265.64
287.14	1343.47
287.35	1265.64
287.56	1347.56
287.77	1366.00
287.98	1308.65
288.19	1337.32
288.40	1296.36
288.61	1310.70
288.82	1320.94
289.03	1449.96
289.24	1452.01
289.45	1468.39
289.66	1263.60
289.87	1368.04
290.08	1302.51
290.29	1345.52
290.50	1302.51
290.71	1202.16
290.92	1456.11
291.13	1300.46
291.34	1349.61
291.55	1277.93
291.76	1228.78
291.97	1314.80
292.18	1312.75
292.39	1322.99
292.61	1359.85
292.82	1243.12
293.03	1503.21
293.24	1230.83
293.45	1204.21
293.66	1325.04
293.87	1329.13
294.08	1357.80
294.29	1243.12
294.50	1525.74
294.71	1394.67
294.92	1226.73
295.13	1386.47
295.34	1224.69
295.55	1214.45
295.76	1339.37
295.97	1390.57
296.18	1290.22
296.39	1366.00
296.60	1359.85
296.81	1290.22
297.02	1220.59
297.23	1427.43
297.44	1292.27
297.65	1343.47
297.86	1366.00
298.07	1177.58
298.28	1282.03
298.49	1241.07
298.70	1331.18
298.91	1316.84
299.12	1204.21
299.33	1261.55
299.54	1378.28
299.75	1275.88
299.96	1230.83
300.17	1406.95
300.38	1370.09
300.59	1239.02
300.80	1308.65
301.01	1284.08
301.22	1214.45
301.43	1370.09
301.64	1236.97
301.85	1269.74
302.06	1372.14
302.27	1243.12
302.48	1519.59
302.69	1312.75
302.89	1335.28
303.10	1316.84
303.31	1257.45
303.52	1279.98
303.73	1298.41
303.94	1312.75
304.15	1265.64
304.36	1234.93
304.57	1284.08
304.78	1241.07
304.99	1284.08
305.20	1275.88
305.41	1345.52
305.62	1427.43
305.83	1310.70
306.04	1273.84
306.25	1282.03
306.46	1181.68
306.67	1355.76
306.88	1339.37
307.09	1267.69
307.30	1329.13
307.51	1374.19
307.72	1320.94
307.93	1230.83
308.14	1230.83
308.35	1257.45
308.55	1316.84
308.76	1226.73
308.97	1224.69
309.18	1429.48
309.39	1347.56
309.60	1259.50
309.81	1347.56
310.02	1255.40
310.23	1230.83
310.44	1259.50
310.65	1259.50
310.86	1308.65
311.07	1374.19
311.28	1249.26
311.49	1267.69
311.70	1331.18
311.91	1286.12
312.11	1339.37
312.32	1312.75
312.53	1267.69
312.74	1345.52
312.95	1234.93
313.16	1394.67
313.37	1351.66
313.58	1177.58
313.79	1132.53
314.00	1290.22
314.21	1232.88
314.42	1263.60
314.63	1214.45
314.83	1322.99
315.04	1306.60
315.25	1415.15
315.46	1392.62
315.67	1245.16
315.88	1314.80
316.09	1284.08
316.30	1349.61
316.51	1382.38
316.72	1232.88
316.93	1318.89
317.13	1355.76
317.34	1239.02
317.55	1486.83
317.76	1189.87
317.97	1296.36
318.18	1374.19
318.39	1423.34
318.60	1337.32
318.81	1226.73
319.02	1409.00
319.23	1343.47
319.43	1402.86
319.64	1310.70
319.85	1322.99
320.06	1355.76
320.27	1339.37
320.48	1380.33
320.69	1279.98
320.90	1259.50
321.11	1443.82
321.31	1267.69
321.52	1327.08
321.73	1406.95
321.94	1308.65
322.15	1298.41
322.36	1392.62
322.57	1306.60
322.78	1253.36
322.98	1374.19
323.19	1273.84
323.40	1339.37
323.61	1288.17
323.82	1212.40
324.03	1220.59
324.24	1390.57
324.45	1368.04
324.65	1292.27
324.86	1312.75
325.07	1425.39
325.28	1271.79
325.49	1384.43
325.70	1290.22
325.91	1341.42
326.12	1318.89
326.32	1200.11
326.53	1284.08
326.74	1296.36
326.95	1400.81
327.16	1286.12
327.37	1337.32
327.58	1232.88
327.78	1226.73
327.99	1165.29
328.20	1335.28
328.41	1239.02
328.62	1259.50
328.83	1351.66
329.04	1257.45
329.24	1277.93
329.45	1273.84
329.66	1275.88
329.87	1402.86
330.08	1277.93
330.29	1337.32
330.49	1505.26
330.70	1247.21
330.91	1312.75
331.12	1310.70
331.33	1355.76
331.54	1314.80
331.74	1292.27
331.95	1333.23
332.16	1245.16
332.37	1271.79
332.58	1380.33
332.79	1284.08
332.99	1304.56
333.20	1361.90
333.41	1263.60
333.62	1357.80
333.83	1200.11
334.04	1279.98
334.24	1349.61
334.45	1196.01
334.66	1279.98
334.87	1316.84
335.08	1275.88
335.29	1206.25
335.49	1345.52
335.70	1368.04
335.91	1302.51
336.12	1417.19
336.33	1284.08
336.53	1251.31
336.74	1351.66
336.95	1302.51
337.16	1306.60
337.37	1243.12
337.57	1275.88
337.78	1343.47
337.99	1339.37
338.20	1316.84
338.41	1269.74
338.62	1232.88
338.82	1449.96
339.03	1296.36
339.24	1306.60
339.45	1335.28
339.65	1208.30
339.86	1359.85
340.07	1355.76
340.28	1210.35
340.49	1429.48
340.69	1273.84
340.90	1304.56
341.11	1357.80
341.32	1333.23
341.53	1200.11
341.73	1329.13
341.94	1257.45
342.15	1355.76
342.36	1366.00
342.57	1402.86
342.77	1310.70
342.98	1265.64
343.19	1288.17
343.40	1398.76
343.60	1421.29
343.81	1263.60
344.02	1224.69
344.23	1382.38
344.44	1236.97
344.64	1150.96
344.85	1357.80
345.06	1298.41
345.27	1320.94
345.47	1200.11
345.68	1322.99
345.89	1206.25
346.10	1478.63
346.30	1273.84
346.51	1296.36
346.72	1495.02
346.93	1370.09
347.13	1275.88
347.34	1400.81
347.55	1329.13
347.76	1161.20
347.97	1398.76
348.17	1251.31
348.38	1288.17
348.59	1261.55
348.80	1206.25
349.00	1368.04
349.21	1275.88
349.42	1462.25
349.63	1396.71
349.83	1247.21
350.04	1296.36
350.25	1314.80
350.45	1257.45
350.66	1257.45
350.87	1288.17
351.08	1292.27
351.28	1435.63
351.49	1265.64
351.70	1370.09
351.91	1193.97
352.11	1290.22
352.32	1243.12
352.53	1429.48
352.74	1206.25
352.94	1333.23
353.15	1224.69
353.36	1357.80
353.56	1318.89
353.77	1339.37
353.98	1419.24
354.19	1361.90
354.39	1300.46
354.60	1271.79
354.81	1339.37
355.02	1263.60
355.22	1318.89
355.43	1372.14
355.64	1175.53
355.84	1345.52
356.05	1177.58
356.26	1400.81
356.47	1331.18
356.67	1415.15
356.88	1411.05
357.09	1277.93
357.29	1341.42
357.50	1400.81
357.71	1212.40
357.92	1300.46
358.12	1263.60
358.33	1322.99
358.54	1333.23
358.74	1388.52
358.95	1329.13
359.16	1341.42
359.36	1247.21
359.57	1372.14
359.78	1361.90
359.98	1273.84
360.19	1298.41
360.40	1361.90
360.61	1406.95
360.81	1325.04
361.02	1226.73
361.23	1363.95
361.43	1259.50
361.64	1341.42
361.85	1345.52
362.05	1402.86
362.26	1339.37
362.47	1325.04
362.67	1255.40
362.88	1286.12
363.09	1234.93
363.29	1312.75
363.50	1224.69
363.71	1316.84
363.91	1359.85
364.12	1486.83
364.33	1308.65
364.53	1349.61
364.74	1241.07
364.95	1357.80
365.15	1353.71
365.36	1247.21
365.57	1343.47
365.77	1316.84
365.98	1306.60
366.19	1449.96
366.39	1341.42
366.60	1314.80
366.81	1259.50
367.01	1347.56
367.22	1363.95
367.43	1388.52
367.63	1351.66
367.84	1259.50
368.05	1390.57
368.25	1290.22
368.46	1322.99
368.67	1243.12
368.87	1259.50
369.08	1232.88
369.29	1234.93
369.49	1263.60
369.70	1267.69
369.91	1253.36
370.11	1322.99
370.32	1210.35
370.52	1316.84
370.73	1386.47
370.94	1247.21
371.14	1322.99
371.35	1343.47
371.56	1331.18
371.76	1345.52
371.97	1443.82
372.18	1239.02
372.38	1187.82
372.59	1290.22
372.79	1257.45
373.00	1255.40
373.21	1392.62
373.41	1218.54
373.62	1247.21
373.83	1226.73
374.03	1384.43
374.24	1239.02
374.44	1282.03
374.65	1372.14
374.86	1269.74
375.06	1312.75
375.27	1279.98
375.47	1441.77
375.68	1341.42
375.89	1329.13
376.09	1398.76
376.30	1271.79
376.50	1347.56
376.71	1398.76
376.92	1292.27
377.12	1349.61
377.33	1290.22
377.54	1267.69
377.74	1366.00
377.95	1468.39
378.15	1275.88
378.36	1263.60
378.57	1386.47
378.77	1353.71
378.98	1363.95
379.18	1259.50
379.39	1300.46
379.59	1267.69
379.80	1259.50
380.01	1290.22
380.21	1372.14
380.42	1351.66
380.62	1388.52
380.83	1226.73
381.04	1185.77
381.24	1308.65
381.45	1419.24
381.65	1269.74
381.86	1230.83
382.06	1449.96
382.27	1376.24
382.48	1275.88
382.68	1409.00
382.89	1341.42
383.09	1441.77
383.30	1288.17
383.51	1318.89
383.71	1382.38
383.92	1255.40
384.12	1214.45
384.33	1251.31
384.53	1255.40
384.74	1357.80
384.94	1394.67
385.15	1470.44
385.36	1353.71
385.56	1300.46
385.77	1353.71
385.97	1259.50
386.18	1275.88
386.38	1261.55
386.59	1415.15
386.79	1292.27
387.00	1269.74
387.21	1349.61
387.41	1406.95
387.62	1282.03
387.82	1341.42
388.03	1325.04
388.23	1308.65
388.44	1357.80
388.64	1257.45
388.85	1406.95
389.06	1277.93
389.26	1380.33
389.47	1423.34
389.67	1308.65
389.88	1398.76
390.08	1337.32
390.29	1437.67
390.49	1298.41
390.70	1531.88
390.90	1355.76
391.11	1206.25
391.31	1259.50
391.52	1296.36
391.72	1419.24
391.93	1251.31
392.13	1400.81
392.34	1259.50
392.55	1353.71
392.75	1292.27
392.96	1232.88
393.16	1415.15
393.37	1296.36
393.57	1279.98
393.78	1284.08
393.98	1345.52
394.19	1456.11
394.39	1312.75
394.60	1439.72
394.80	1320.94
395.01	1384.43
395.21	1509.35
395.42	1429.48
395.62	1329.13
395.83	1320.94
396.03	1443.82
396.24	1470.44
396.44	1368.04
396.65	1351.66
396.85	1345.52
397.06	1363.95
397.26	1284.08
397.47	1439.72
397.67	1351.66
397.88	1349.61
398.08	1355.76
398.29	1384.43
398.49	1406.95
398.70	1380.33
398.90	1300.46
399.11	1298.41
399.31	1517.54
399.52	1413.10
399.72	1402.86
399.93	1456.11
400.13	1357.80
400.34	1439.72
400.54	1441.77
400.75	1390.57
400.95	1409.00
401.15	1474.54
401.36	1320.94
401.56	1302.51
401.77	1429.48
401.97	1279.98
402.18	1433.58
402.38	1370.09
402.59	1349.61
402.79	1347.56
403.00	1386.47
403.20	1417.19
403.41	1378.28
403.61	1322.99
403.82	1335.28
404.02	1347.56
404.22	1310.70
404.43	1386.47
404.63	1339.37
404.84	1464.30
405.04	1310.70
405.25	1394.67
405.45	1345.52
405.66	1380.33
405.86	1325.04
406.07	1368.04
406.27	1380.33
406.47	1386.47
406.68	1351.66
406.88	1472.49
407.09	1345.52
407.29	1390.57
407.50	1372.14
407.70	1425.39
407.91	1359.85
408.11	1433.58
408.31	1474.54
408.52	1447.91
408.72	1363.95
408.93	1488.87
409.13	1431.53
409.34	1523.69
409.54	1292.27
409.74	1456.11
409.95	1366.00
410.15	1363.95
410.36	1331.18
410.56	1318.89
410.77	1495.02
410.97	1427.43
411.17	1443.82
411.38	1456.11
411.58	1384.43
411.79	1431.53
411.99	1353.71
412.19	1374.19
412.40	1464.30
412.60	1495.02
412.81	1325.04
413.01	1486.83
413.22	1429.48
413.42	1419.24
413.62	1380.33
413.83	1462.25
414.03	1427.43
414.24	1464.30
414.44	1564.65
414.64	1466.35
414.85	1441.77
415.05	1544.17
415.26	1454.06
415.46	1390.57
415.66	1480.68
415.87	1361.90
416.07	1525.74
416.28	1370.09
416.48	1519.59
416.68	1511.40
416.89	1458.15
417.09	1497.07
417.29	1443.82
417.50	1542.12
417.70	1452.01
417.91	1478.63
418.11	1353.71
418.31	1388.52
418.52	1386.47
418.72	1484.78
418.93	1546.22
419.13	1406.95
419.33	1542.12
419.54	1454.06
419.74	1409.00
419.94	1581.03
420.15	1409.00
420.35	1464.30
420.56	1437.67
420.76	1443.82
420.96	1380.33
421.17	1443.82
421.37	1437.67
421.57	1574.89
421.78	1529.83
421.98	1486.83
422.18	1560.55
422.39	1476.59
422.59	1488.87
422.80	1484.78
423.00	1423.34
423.20	1550.31
423.41	1503.21
423.61	1564.65
423.81	1439.72
424.02	1460.20
424.22	1413.10
424.42	1521.64
424.63	1597.42
424.83	1486.83
425.03	1497.07
425.24	1597.42
425.44	1492.97
425.64	1421.29
425.85	1511.40
426.05	1429.48
426.25	1591.27
426.46	1437.67
426.66	1503.21
426.86	1593.32
427.07	1556.46
427.27	1499.11
427.47	1845.22
427.68	1535.98
427.88	1601.51
428.08	1630.18
428.29	1486.83
428.49	1523.69
428.69	1697.77
428.90	1458.15
429.10	1550.31
429.30	1576.94
429.51	1568.74
429.71	1652.71
429.91	1435.63
430.12	1591.27
430.32	1781.73
430.52	1492.97
430.72	1552.36
430.93	1591.27
431.13	1503.21
431.33	1560.55
431.54	1609.70
431.74	1495.02
431.94	1566.70
432.15	1587.18
432.35	1644.52
432.55	1466.35
432.76	1542.12
432.96	1669.09
433.16	1601.51
433.36	1720.29
433.57	1542.12
433.77	1677.29
433.97	1583.08
434.18	1605.61
434.38	1658.85
434.58	1667.05
434.78	1558.50
434.99	1660.90
435.19	1714.15
435.39	1552.36
435.60	1550.31
435.80	1748.97
436.00	1556.46
436.20	1556.46
436.41	1566.70
436.61	1589.22
436.81	1533.93
437.02	1603.56
437.22	1621.99
437.42	1736.68
437.62	1605.61
437.83	1742.82
438.03	1546.22
438.23	1619.94
438.43	1728.49
438.64	1650.66
438.84	1558.50
439.04	1767.40
439.25	1705.96
439.45	1718.25
439.65	1673.19
439.85	1701.86
440.06	1640.42
440.26	1705.96
440.46	1652.71
440.66	1595.37
440.87	1693.67
441.07	1662.95
441.27	1777.64
441.47	1611.75
441.68	1667.05
441.88	1679.33
442.08	1658.85
442.28	1757.16
442.49	1734.63
442.69	1839.08
442.89	1687.53
443.09	1634.28
443.30	1650.66
443.50	1669.09
443.70	1675.24
443.90	1636.33
444.10	1683.43
444.31	1746.92
444.51	1525.74
444.71	1753.06
444.91	1732.58
445.12	1724.39
445.32	1861.60
445.52	1734.63
445.72	1603.56
445.93	1642.47
446.13	1726.44
446.33	1765.35
446.53	1789.92
446.73	1761.25
446.94	1644.52
447.14	1701.86
447.34	1648.61
447.54	1832.93
447.74	1677.29
447.95	1763.30
448.15	1685.48
448.35	1650.66
448.55	1669.09
448.76	1689.57
448.96	1834.98
449.16	1718.25
449.36	1732.58
449.56	1671.14
449.77	1816.55
449.97	1732.58
450.17	1570.79
450.37	1626.09
450.57	1777.64
450.78	1751.01
450.98	1679.33
451.18	1740.77
451.38	1722.34
451.58	1753.06
451.79	1644.52
451.99	1736.68
452.19	1687.53
452.39	1904.61
452.59	1857.51
452.79	1730.53
453.00	1701.86
453.20	1789.92
453.40	1710.05
453.60	1865.70
453.80	1687.53
454.01	1726.44
454.21	1781.73
454.41	1675.24
454.61	1771.49
454.81	1867.75
455.01	1773.54
455.22	1822.69
455.42	1740.77
455.62	1939.43
455.82	1652.71
456.02	1753.06
456.22	1834.98
456.43	1699.81
456.63	1763.30
456.83	1751.01
457.03	1808.36
457.23	1828.84
457.43	1822.69
457.64	1839.08
457.84	1751.01
458.04	1802.21
458.24	1808.36
458.44	1832.93
458.64	1800.16
458.84	1837.03
459.05	1765.35
459.25	1763.30
459.45	1802.21
459.65	1849.32
459.85	1769.44
460.05	1773.54
460.25	1949.67
460.46	1902.56
460.66	1861.60
460.86	1810.40
461.06	1777.64
461.26	1841.12
461.46	1877.99
461.66	1818.60
461.87	1931.23
462.07	1834.98
462.27	2009.06
462.47	1902.56
462.67	1853.41
462.87	1873.89
463.07	1800.16
463.27	1898.47
463.48	1767.40
463.68	1853.41
463.88	1781.73
464.08	1939.43
464.28	1830.88
464.48	1916.90
464.68	1939.43
464.88	1888.23
465.08	2023.39
465.29	1964.00
465.49	1918.95
465.69	1966.05
465.89	2007.01
466.09	1996.77
466.29	1914.85
466.49	2025.44
466.69	1925.09
466.89	1990.63
467.10	2000.87
467.30	2021.35
467.50	2199.52
467.70	1923.04
467.90	1984.48
468.10	2021.35
468.30	1939.43
468.50	1994.72
468.70	1968.10
468.90	1980.39
469.10	1931.23
469.31	2058.21
469.51	2113.50
469.71	1925.09
469.91	2101.22
470.11	1953.76
470.31	2129.89
470.51	2095.07
470.71	1959.91
470.91	2133.98
471.11	2172.89
471.31	2019.30
471.51	2107.36
471.71	2127.84
471.92	2105.31
472.12	2074.59
472.32	2111.46
472.52	2224.09
472.72	2105.31
472.92	2215.90
473.12	2207.71
473.32	2138.08
473.52	2187.23
473.72	2258.91
473.92	2260.96
474.12	2351.07
474.32	2297.82
474.52	2349.02
474.72	2265.05
474.92	2314.20
475.13	2328.54
475.33	2355.16
475.53	2381.79
475.73	2428.89
475.93	2351.07
476.13	2445.27
476.33	2463.71
476.53	2551.77
476.73	2504.67
476.93	2584.54
477.13	2611.16
477.33	2656.22
477.53	2621.40
477.73	2742.23
477.93	2676.70
478.13	2875.35
478.33	2736.09
478.53	2791.38
478.73	2885.59
478.93	2781.14
479.13	2783.19
479.33	2920.40
479.53	3112.91
479.73	3030.99
479.93	2987.99
480.13	3125.20
480.33	3100.62
480.53	3133.39
480.73	3213.26
480.93	3332.05
481.13	3254.22
481.34	3364.81
481.54	3512.27
481.74	3592.14
481.94	3684.30
482.14	3823.56
482.34	3813.32
482.54	3844.04
482.74	3891.14
482.94	4212.67
483.14	4315.07
483.34	4216.77
483.54	4317.12
483.74	4452.28
483.94	4626.36
484.14	4722.62
484.34	4954.04
484.54	4874.17
484.74	5111.73
484.94	5326.77
485.14	5355.44
485.34	5629.87
485.54	5605.29
485.74	5851.05
485.93	6127.52
486.13	6260.64
486.33	6569.88
486.53	7016.34
486.73	6965.14
486.93	7028.63
487.13	7456.65
487.33	7667.60
487.53	7966.60
487.73	8388.48
487.93	8660.86
488.13	8859.51
488.33	9371.50
488.53	9650.03
488.73	9734.00
488.93	10393.44
489.13	10678.11
489.33	11202.39
489.53	11872.07
489.73	12144.45
489.93	12791.61
490.13	13164.34
490.33	13834.03
490.53	14411.56
490.73	14755.61
490.93	15300.37
491.13	15955.72
491.33	16631.55
491.53	16895.74
491.73	17600.24
491.93	18188.01
492.12	18892.51
492.32	19220.19
492.52	20145.87
492.72	20829.89
492.92	20868.80
493.12	21604.02
493.32	21978.80
493.52	22916.77
493.72	22976.16
493.92	23525.02
494.12	24012.43
494.32	24137.36
494.52	24852.10
494.72	25517.69
494.92	25759.35
495.12	25912.95
495.31	26306.16
495.51	26582.63
495.71	26902.12
495.91	27205.22
496.11	27029.09
496.31	27221.60
496.51	27141.73
496.71	27387.49
496.91	27178.59
497.11	27534.94
497.31	27346.53
497.51	27483.74
497.71	26818.15
497.90	26936.93
498.10	26654.31
498.30	26130.03
498.50	26195.57
498.70	25892.47
498.90	25421.44
499.10	24766.09
499.30	24538.76
499.50	24293.01
499.70	23465.63
499.89	23084.70
500.09	22247.08
500.29	21933.75
500.49	21567.16
500.69	20735.68
500.89	20053.71
501.09	19549.91
501.29	19074.78
501.49	18521.83
501.69	17460.98
501.88	17209.08
502.08	16346.89
502.28	15802.13
502.48	15187.74
502.68	14624.54
502.88	13840.17
503.08	13553.46
503.28	13020.99
503.47	12302.15
503.67	11906.89
503.87	11429.71
504.07	10704.73
504.27	10338.15
504.47	9772.91
504.67	9451.38
504.87	8976.25
505.06	8509.31
505.26	8216.45
505.46	7530.38
505.66	7387.02
505.86	7030.68
506.06	6924.18
506.26	6410.14
506.45	6236.06
506.65	6111.14
506.85	5642.15
507.05	5304.24
507.25	5185.46
507.45	5158.83
507.65	4845.49
507.84	4913.08
508.04	4585.40
508.24	4448.19
508.44	4485.05
508.64	4220.86
508.84	4218.82
509.04	4007.87
509.23	4233.15
509.43	4134.85
509.63	3958.72
509.83	3823.56
510.03	3960.77
510.23	3862.47
510.42	3833.80
510.62	3794.89
510.82	3794.89
511.02	3901.38
511.22	3712.97
511.42	3708.87
511.61	3813.32
511.81	3669.96
512.01	3708.87
512.21	3680.20
512.41	3839.94
512.60	3700.68
512.80	3725.26
513.00	3856.33
513.20	3839.94
513.40	3798.98
513.60	3655.62
513.79	3909.57
513.99	3932.10
514.19	3780.55
514.39	3868.61
514.59	3768.26
514.78	3739.59
514.98	3991.49
515.18	3852.23
515.38	3958.72
515.58	3966.92
515.77	3815.37
515.97	3841.99
516.17	3954.63
516.37	3956.68
516.57	3848.13
516.76	3981.25
516.96	4036.55
517.16	3958.72
517.36	4040.64
517.56	3991.49
517.75	3942.34
517.95	3885.00
518.15	4054.98
518.35	3893.19
518.55	4061.12
518.74	3942.34
518.94	3891.14
519.14	3889.09
519.34	4024.26
519.53	4042.69
519.73	4044.74
519.93	3989.44
520.13	4153.28
520.32	4083.65
520.52	4087.75
520.72	4323.26
520.92	4179.90
521.12	4241.34
521.31	4255.68
521.51	4126.66
521.71	4157.38
521.91	4222.91
522.10	4151.23
522.30	4071.36
522.50	4249.54
522.70	4431.80
522.89	4196.29
523.09	4255.68
523.29	4161.47
523.49	4313.02
523.68	4294.59
523.88	4337.60
524.08	4382.65
524.28	4278.21
524.47	4454.33
524.67	4370.37
524.87	4229.06
525.07	4337.60
525.26	4206.53
525.46	4417.47
525.66	4380.61
525.86	4421.56
526.05	4272.06
526.25	4370.37
526.45	4079.55
526.64	4214.72
526.84	4263.87
527.04	4233.15
527.24	4286.40
527.43	4388.80
527.63	4415.42
527.83	4554.68
528.03	4487.10
528.22	4517.82
528.42	4456.38
528.62	4394.94
528.81	4399.04
529.01	4376.51
529.21	4376.51
529.41	4425.66
529.60	4425.66
529.80	4419.52
530.00	4480.96
530.19	4388.80
530.39	4546.49
530.59	4595.64
530.79	4450.24
530.98	4321.21
531.18	4276.16
531.38	4396.99
531.57	4546.49
531.77	4327.36
531.97	4427.71
532.16	4427.71
532.36	4345.79
532.56	4292.54
532.76	4364.22
532.95	4628.41
533.15	4507.58
533.35	4478.91
533.54	4415.42
533.74	4456.38
533.94	4483.00
534.13	4304.83
534.33	4501.44
534.53	4374.46
534.72	4483.00
534.92	4579.26
535.12	4595.64
535.31	4378.56
535.51	4515.77
535.71	4511.68
535.90	4542.39
536.10	4577.21
536.30	4470.72
536.49	4534.20
536.69	4476.86
536.89	4399.04
537.08	4556.73
537.28	4329.41
537.48	4495.29
537.67	4663.22
537.87	4556.73
538.07	4558.78
538.26	4466.62
538.46	4476.86
538.66	4483.00
538.85	4528.06
539.05	4904.89
539.25	4421.56
539.44	4505.53
539.64	4562.87
539.84	4638.65
540.03	4560.83
540.23	4630.46
540.42	4528.06
540.62	4710.33
540.82	4597.69
541.01	4587.45
541.21	4460.48
541.41	4552.63
541.60	4470.72
541.80	4628.41
542.00	4550.59
542.19	4485.05
542.39	4587.45
542.58	4720.57
542.78	4575.16
542.98	4716.47
543.17	4560.83
543.37	4624.31
543.57	4652.98
543.76	4620.22
543.96	4802.49
544.15	4751.29
544.35	4767.67
544.55	4583.35
544.74	4747.19
544.94	4882.36
545.13	4691.90
545.33	4941.75
545.53	4704.18
545.72	4751.29
545.92	4880.31
546.11	4767.67
546.31	4863.93
546.51	4759.48
546.70	4812.73
546.90	4929.46
547.09	4896.69
547.29	4851.64
547.49	4753.34
547.68	4802.49
547.88	4796.34
548.07	4886.45
548.27	4915.12
548.47	4988.85
548.66	5048.24
548.86	4822.97
549.05	5011.38
549.25	4767.67
549.45	4829.11
549.64	4868.02
549.84	5044.15
550.03	4986.80
550.23	5021.62
550.42	5017.52
550.62	4943.80
550.82	4839.35
551.01	4960.18
551.21	4968.37
551.40	5142.45
551.60	4949.94
551.79	5058.48
551.99	4927.41
552.19	4945.84
552.38	5083.06
552.58	5222.32
552.77	5025.72
552.97	5052.34
553.16	5179.31
553.36	5232.56
553.55	5154.74
553.75	5126.07
553.95	5058.48
554.14	5308.34
554.34	5072.82
554.53	5193.65
554.73	5263.28
554.92	5218.22
555.12	5238.70
555.31	5314.48
555.51	5181.36
555.70	5224.37
555.90	5277.62
556.09	5216.18
556.29	5191.60
556.49	5068.72
556.68	5216.18
556.88	5390.25
557.07	5367.73
557.27	5164.98
557.46	5425.07
557.66	5298.10
557.85	5504.94
558.05	5443.50
558.24	5234.61
558.44	5302.19
558.63	5420.97
558.83	5306.29
559.02	5371.82
559.22	5371.82
559.41	5500.84
559.61	5543.85
559.80	5500.84
560.00	5498.80
560.19	5228.46
560.39	5377.97
560.58	5633.96
560.78	5453.74
560.97	5441.45
561.17	5267.38
561.36	5543.85
561.56	5400.49
561.75	5443.50
561.95	5380.01
562.14	5361.58
562.34	5459.88
562.53	5513.13
562.73	5255.09
562.92	5287.86
563.12	5240.75
563.31	5334.96
563.51	5572.52
563.70	5488.56
563.90	5328.81
564.09	5468.08
564.29	5433.26
564.48	5490.60
564.68	5511.08
564.87	5556.14
565.07	5478.32
565.26	5359.53
565.46	5515.18
565.65	5492.65
565.85	5451.69
566.04	5447.60
566.24	5470.12
566.43	5484.46
566.63	5371.82
566.82	5392.30
567.01	5326.77
567.21	5265.33
567.40	5535.66
567.60	5515.18
567.79	5511.08
567.99	5599.15
568.18	5330.86
568.38	5509.04
568.57	5443.50
568.77	5398.45
568.96	5431.21
569.15	5488.56
569.35	5357.49
569.54	5652.39
569.74	5474.22
569.93	5320.62
570.13	5447.60
570.32	5607.34
570.52	5529.52
570.71	5523.37
570.90	5330.86
571.10	5502.89
571.29	5447.60
571.49	5318.57
571.68	5347.25
571.88	5566.38
572.07	5429.17
572.26	5314.48
572.46	5443.50
572.65	5564.33
572.85	5480.36
573.04	5447.60
573.24	5461.93
573.43	5423.02
573.62	5404.59
573.82	5425.07
574.01	5294.00
574.21	5461.93
574.40	5386.16
574.59	5271.47
574.79	5527.47
574.98	5502.89
575.18	5339.05
575.37	5527.47
575.56	5351.34
575.76	5332.91
575.95	5418.93
576.15	5439.40
576.34	5220.27
576.53	5388.21
576.73	5443.50
576.92	5380.01
577.12	5367.73
577.31	5609.39
577.50	5337.01
577.70	5494.70
577.89	5416.88
578.09	5347.25
578.28	5408.69
578.47	5380.01
578.67	5470.12
578.86	5597.10
579.06	5328.81
579.25	5500.84
579.44	5337.01
579.64	5531.56
579.83	5396.40
580.02	5500.84
580.22	5472.17
580.41	5584.81
580.61	5562.28
580.80	5474.22
580.99	5441.45
581.19	5560.24
581.38	5550.00
581.57	5332.91
581.77	5429.17
581.96	5488.56
582.15	5513.13
582.35	5433.26
582.54	5359.53
582.73	5361.58
582.93	5416.88
583.12	5459.88
583.32	5226.42
583.51	5468.08
583.70	5341.10
583.90	5552.04
584.09	5410.73
584.28	5502.89
584.48	5425.07
584.67	5595.05
584.86	5308.34
585.06	5386.16
585.25	5550.00
585.44	5463.98
585.64	5474.22
585.83	5590.95
586.02	5447.60
586.22	5617.58
586.41	5500.84
586.60	5353.39
586.80	5593.00
586.99	5527.47
587.18	5543.85
587.38	5529.52
587.57	5623.72
587.76	5332.91
587.96	5425.07
588.15	5640.11
588.34	5429.17
588.53	5504.94
588.73	5593.00
588.92	5558.19
589.11	5599.15
589.31	5554.09
589.50	5437.36
589.69	5603.24
589.89	5566.38
590.08	5724.07
590.27	5441.45
590.47	5427.12
590.66	5580.71
590.85	5547.95
591.04	5502.89
591.24	5515.18
591.43	5529.52
591.62	5513.13
591.82	5457.84
592.01	5556.14
592.20	5767.08
592.39	5738.41
592.59	5552.04
592.78	5730.22
592.97	5328.81
593.17	5457.84
593.36	5433.26
593.55	5689.26
593.74	5494.70
593.94	5552.04
594.13	5617.58
594.32	5484.46
594.52	5574.57
594.71	5529.52
594.90	5486.51
595.09	5500.84
595.29	5425.07
595.48	5547.95
595.67	5502.89
595.86	5472.17
596.06	5584.81
596.25	5570.48
596.44	5410.73
596.63	5517.23
596.83	5605.29
597.02	5476.27
597.21	5482.41
597.40	5683.11
597.60	5560.24
597.79	5619.63
597.98	5384.11
598.17	5498.80
598.37	5670.83
598.56	5328.81
598.75	5541.80
598.94	5724.07
599.14	5408.69
599.33	5470.12
599.52	5504.94
599.71	5414.83
599.91	5638.06
600.10	5339.05
600.29	5318.57
600.48	5582.76
600.68	5394.35
600.87	5423.02
601.06	5410.73
601.25	5724.07
601.44	5461.93
601.64	5588.91
601.83	5480.36
602.02	5423.02
602.21	5463.98
602.41	5314.48
602.60	5394.35
602.79	5355.44
602.98	5558.19
603.17	5304.24
603.37	5390.25
603.56	5359.53
603.75	5324.72
603.94	5304.24
604.13	5259.18
604.33	5590.95
604.52	5267.38
604.71	5328.81
604.90	5420.97
605.09	5400.49
605.29	5365.68
605.48	5404.59
605.67	5343.15
605.86	5281.71
606.05	5300.14
606.25	5306.29
606.44	5267.38
606.63	5371.82
606.82	5357.49
607.01	5228.46
607.20	5214.13
607.40	5339.05
607.59	5312.43
607.78	5294.00
607.97	5216.18
608.16	5334.96
608.36	5416.88
608.55	5222.32
608.74	5230.51
608.93	5392.30
609.12	5255.09
609.31	5193.65
609.51	5138.35
609.70	5400.49
609.89	5105.59
610.08	5103.54
610.27	5152.69
610.46	5232.56
610.66	5302.19
610.85	5099.44
611.04	5203.89
611.23	5234.61
611.42	5300.14
611.61	5220.27
611.80	5087.15
612.00	5269.42
612.19	5246.90
612.38	5187.50
612.57	5216.18
612.76	5201.84
612.95	5341.10
613.14	5164.98
613.34	5117.87
613.53	5164.98
613.72	5375.92
613.91	5060.53
614.10	5146.55
614.29	5124.02
614.48	5191.60
614.67	5038.00
614.87	5126.07
615.06	4966.32
615.25	5214.13
615.44	5240.75
615.63	5177.26
615.82	5353.39
616.01	5087.15
616.20	5023.67
616.40	5142.45
616.59	5242.80
616.78	5156.79
616.97	5156.79
617.16	5085.11
617.35	5220.27
617.54	5287.86
617.73	5351.34
617.92	5107.63
618.12	5011.38
618.31	5101.49
618.50	5183.41
618.69	5283.76
618.88	5205.94
619.07	5101.49
619.26	5193.65
619.45	5109.68
619.64	5078.96
619.83	5058.48
620.02	5050.29
620.22	4982.71
620.41	5064.63
620.60	5107.63
620.79	5128.11
620.98	4917.17
621.17	4976.56
621.36	5357.49
621.55	4990.90
621.74	5318.57
621.93	5162.93
622.12	5173.17
622.31	5269.42
622.51	5115.83
622.70	5081.01
622.89	5111.73
623.08	5375.92
623.27	5183.41
623.46	5042.10
623.65	5119.92
623.84	5048.24
624.03	5144.50
624.22	5242.80
624.41	5115.83
624.60	5072.82
624.79	5277.62
624.98	5115.83
625.17	5044.15
625.36	5173.17
625.55	5126.07
625.74	5076.91
625.94	5289.90
626.13	5197.74
626.32	5130.16
626.51	5240.75
626.70	5050.29
626.89	5255.09
627.08	5072.82
627.27	5162.93
627.46	5162.93
627.65	5222.32
627.84	5111.73
628.03	5152.69
628.22	5011.38
628.41	5253.04
628.60	4968.37
628.79	5171.12
628.98	5103.54
629.17	5115.83
629.36	5162.93
629.55	5130.16
629.74	5257.14
629.93	5144.50
630.12	5281.71
630.31	5185.46
630.50	5273.52
630.69	5150.64
630.88	5105.59
631.07	5337.01
631.26	5218.22
631.45	5214.13
631.64	5179.31
631.83	5259.18
632.02	5167.03
632.21	5105.59
632.40	5314.48
632.59	5322.67
632.78	5134.26
632.97	5273.52
633.16	5271.47
633.35	5244.85
633.54	5386.16
633.73	5052.34
633.92	5144.50
634.11	5306.29
634.30	5205.94
634.49	5369.77
634.68	5382.06
634.87	5257.14
635.06	5218.22
635.25	5347.25
635.44	5461.93
635.63	5222.32
635.82	5269.42
636.01	5240.75
636.20	5461.93
636.39	5363.63
636.58	5392.30
636.77	5296.05
636.96	5343.15
637.15	5363.63
637.34	5468.08
637.53	5298.10
637.72	5574.57
637.91	5341.10
638.09	5416.88
638.28	5398.45
638.47	5402.54
638.66	5461.93
638.85	5476.27
639.04	5537.71
639.23	5511.08
639.42	5554.09
639.61	5502.89
639.80	5472.17
639.99	5537.71
640.18	5498.80
640.37	5783.46
640.56	5543.85
640.75	5457.84
640.94	5435.31
641.13	5554.09
641.32	5599.15
641.50	5654.44
641.69	5590.95
641.88	5322.67
642.07	5547.95
642.26	5599.15
642.45	5699.50
642.64	5556.14
642.83	5558.19
643.02	5650.35
643.21	5668.78
643.40	5814.18
643.59	5527.47
643.77	5482.41
643.96	5834.66
644.15	5887.91
644.34	5445.55
644.53	5736.36
644.72	5730.22
644.91	5640.11
645.10	5883.81
645.29	5703.59
645.48	5748.65
645.67	5707.69
645.85	5826.47
646.04	5814.18
646.23	5840.81
646.42	5941.16
646.61	5728.17
646.80	5775.27
646.99	5603.24
647.18	5789.61
647.37	5799.85
647.55	6008.74
647.74	5871.53
647.93	5701.54
648.12	5826.47
648.31	5767.08
648.50	5793.70
648.69	5830.57
648.88	5805.99
649.06	5838.76
649.25	5853.09
649.44	5773.22
649.63	5900.20
649.82	5846.95
650.01	5816.23
650.20	5885.86
650.39	5855.14
650.57	5771.18
650.76	5920.68
650.95	5861.29
651.14	5883.81
651.33	5879.72
651.52	5734.31
651.70	6049.70
651.89	5664.68
652.08	5849.00
652.27	5973.92
652.46	5871.53
652.65	5793.70
652.84	5668.78
653.02	5857.19
653.21	5793.70
653.40	5717.93
653.59	5793.70
653.78	5607.34
653.97	5738.41
654.15	5834.66
654.34	5795.75
654.53	5558.19
654.72	5588.91
654.91	5676.97
655.10	5574.57
655.28	5740.46
655.47	5699.50
655.66	5476.27
655.85	5773.22
656.04	5691.31
656.23	5533.61
656.41	5599.15
656.60	5515.18
656.79	5519.28
656.98	5455.79
657.17	5459.88
657.35	5414.83
657.54	5314.48
657.73	5359.53
657.92	5367.73
658.11	5533.61
658.29	5128.11
658.48	5320.62
658.67	5418.93
658.86	5371.82
659.05	5435.31
659.23	5386.16
659.42	5281.71
659.61	5253.04
659.80	5169.07
659.99	5099.44
660.17	5201.84
660.36	5068.72
660.55	5212.08
660.74	5162.93
660.92	4935.60
661.11	4999.09
661.30	5060.53
661.49	4982.71
661.68	4939.70
661.86	4851.64
662.05	4939.70
662.24	4876.21
662.43	4857.78
662.61	4782.01
662.80	4822.97
662.99	4659.13
663.18	4681.66
663.37	4583.35
663.55	4886.45
663.74	4747.19
663.93	4712.38
664.12	4714.42
664.30	4564.92
664.49	4722.62
664.68	4534.20
664.87	4499.39
665.05	4579.26
665.24	4595.64
665.43	4564.92
665.62	4558.78
665.80	4560.83
665.99	4460.48
666.18	4558.78
666.37	4460.48
666.55	4360.13
666.74	4239.30
666.93	4448.19
667.11	4247.49
667.30	4300.73
667.49	4267.97
667.68	4413.37
667.86	4298.69
668.05	4265.92
668.24	4360.13
668.43	4171.71
668.61	4286.40
668.80	4323.26
668.99	4380.61
669.17	4200.38
669.36	4364.22
669.55	4157.38
669.74	4179.90
669.92	4147.14
670.11	4112.32
670.30	4198.34
670.48	4300.73
670.67	4179.90
670.86	3993.54
671.05	4181.95
671.23	4198.34
671.42	4081.60
671.61	4192.19
671.79	4167.62
671.98	4005.83
672.17	4147.14
672.35	4233.15
672.54	4116.42
672.73	4222.91
672.91	4212.67
673.10	4030.40
673.29	4085.70
673.48	4102.08
673.66	4136.90
673.85	4020.16
674.04	4073.41
674.22	4214.72
674.41	4106.18
674.60	4052.93
674.78	4087.75
674.97	4100.03
675.16	4153.28
675.34	4102.08
675.53	4206.53
675.72	4208.58
675.90	4196.29
676.09	4071.36
676.28	4089.79
676.46	4184.00
676.65	4149.18
676.84	4224.96
677.02	4304.83
677.21	4175.81
677.40	4241.34
677.58	4270.01
677.77	4134.85
677.95	4163.52
678.14	4188.10
678.33	4155.33
678.51	4267.97
678.70	4235.20
678.89	4358.08
679.07	4241.34
679.26	4206.53
679.45	4313.02
679.63	4267.97
679.82	4411.32
680.01	4335.55
680.19	4272.06
680.38	4417.47
680.56	4394.94
680.75	4380.61
680.94	4470.72
681.12	4462.52
681.31	4458.43
681.50	4294.59
681.68	4360.13
681.87	4425.66
682.05	4409.28
682.24	4708.28
682.43	4589.50
682.61	4542.39
682.80	4708.28
682.98	4741.05
683.17	4634.55
683.36	4732.86
683.54	4773.82
683.73	4798.39
683.91	4757.43
684.10	4763.58
684.29	4929.46
684.47	4814.77
684.66	4902.84
684.84	4992.95
685.03	4902.84
685.22	5015.48
685.40	4958.13
685.59	5027.76
685.77	5232.56
685.96	5291.95
686.15	5021.62
686.33	5148.59
686.52	5126.07
686.70	5248.94
686.89	5181.36
687.07	5468.08
687.26	5322.67
687.45	5355.44
687.63	5181.36
687.82	5670.83
688.00	5386.16
688.19	5627.82
688.37	5662.63
688.56	5615.53
688.75	5693.35
688.93	5830.57
689.12	5849.00
689.30	5590.95
689.49	5662.63
689.67	5805.99
689.86	5789.61
690.04	5818.28
690.23	5869.48
690.42	5832.62
690.60	6049.70
690.79	5957.54
690.97	6047.65
691.16	6010.79
691.34	6231.97
691.53	6180.77
691.71	6156.19
691.90	6152.10
692.08	6188.96
692.27	6377.37
692.45	6293.41
692.64	6373.28
692.83	6444.96
693.01	6571.93
693.20	6371.23
693.38	6465.44
693.57	6645.66
693.75	6426.53
693.94	6453.15
694.12	6666.14
694.31	6715.29
694.49	6733.72
694.68	6641.56
694.86	6791.06
695.05	6893.46
695.23	6789.02
695.42	6926.23
695.60	6860.70
695.79	7098.26
695.97	6946.71
696.16	7010.20
696.34	6967.19
696.53	6864.79
696.71	6952.85
696.90	7096.21
697.08	7108.50
697.27	7303.06
697.45	7186.32
697.64	7214.99
697.82	7026.58
698.01	7458.70
698.19	7485.33
698.38	7321.49
698.56	7243.67
698.75	7399.31
698.93	7417.74
699.12	7485.33
699.30	7352.21
699.49	7567.24
699.67	7391.12
699.86	7479.18
700.04	7528.33
700.22	7595.92
700.41	7407.50
700.59	7559.05
700.78	7561.10
700.96	7780.23
701.15	7485.33
701.33	7540.62
701.52	7616.40
701.70	7696.27
701.89	7733.13
702.07	7718.79
702.26	7894.92
702.44	7970.69
702.62	7692.17
702.81	7745.42
702.99	7694.22
703.18	7769.99
703.36	7851.91
703.55	8048.52
703.73	7858.06
703.92	7866.25
704.10	7915.40
704.28	8122.24
704.47	8136.58
704.65	7989.13
704.84	8046.47
705.02	8032.13
705.21	8079.24
705.39	8171.40
705.57	8075.14
705.76	8152.96
705.94	8146.82
706.13	8185.73
706.31	8169.35
706.50	8066.95
706.68	8187.78
706.86	8198.02
707.05	8183.68
707.23	8189.83
707.42	8279.94
707.60	8087.43
707.78	8386.43
707.97	8222.59
708.15	8382.34
708.34	8230.79
708.52	7989.13
708.70	8279.94
708.89	8263.55
709.07	8329.09
709.26	8249.22
709.44	8318.85
709.62	8273.79
709.81	8200.07
709.99	8478.59
710.18	8427.39
710.36	8306.56
710.54	8386.43
710.73	8365.95
710.91	8187.78
711.10	8513.41
711.28	8277.89
711.46	8316.80
711.65	8472.45
711.83	8351.62
712.01	8556.41
712.20	8320.90
712.38	8423.30
712.57	8466.30
712.75	8337.28
712.93	8337.28
713.12	8503.17
713.30	8456.06
713.48	8468.35
713.67	8419.20
713.85	8427.39
714.03	8404.86
714.22	8531.84
714.40	8501.12
714.58	8394.62
714.77	8370.05
714.95	8257.41
715.14	8386.43
715.32	8658.81
715.50	8701.82
715.69	8327.04
715.87	8400.77
716.05	8449.92
716.24	8546.17
716.42	8417.15
716.60	8296.32
716.79	8382.34
716.97	8591.23
717.15	8585.08
717.34	8337.28
717.52	8492.93
717.70	8361.86
717.89	8224.64
718.07	8357.76
718.25	8327.04
718.44	8327.04
718.62	8341.38
718.80	8314.75
718.98	8380.29
719.17	8357.76
719.35	8404.86
719.53	8490.88
719.72	8300.42
719.90	8361.86
720.08	8474.49
720.27	8161.16
720.45	8447.87
720.63	8400.77
720.82	8560.51
721.00	8210.31
721.18	8269.70
721.36	8329.09
721.55	8431.49
721.73	8249.22
721.91	8417.15
722.10	8341.38
722.28	8175.49
722.46	8290.18
722.64	8116.10
722.83	8161.16
723.01	8492.93
723.19	8218.50
723.38	8386.43
723.56	8382.34
723.74	8159.11
723.92	8138.63
724.11	8232.83
724.29	8181.64
724.47	8079.24
724.65	8284.03
724.84	8279.94
725.02	8345.47
725.20	8189.83
725.39	8202.11
725.57	8200.07
725.75	8478.59
725.93	8482.69
726.12	8331.14
726.30	8101.76
726.48	8177.54
726.66	8148.87
726.85	8126.34
727.03	8146.82
727.21	8038.28
727.39	8198.02
727.58	8042.37
727.76	7942.02
727.94	8011.65
728.12	7931.78
728.30	8079.24
728.49	8036.23
728.67	8050.57
728.85	8036.23
729.03	8140.68
729.22	8112.00
729.40	8032.13
729.58	8204.16
729.76	7835.53
729.95	7919.50
730.13	7993.22
730.31	7985.03
730.49	7993.22
730.67	7935.88
730.86	8091.52
731.04	7956.36
731.22	7878.54
731.40	7927.69
731.58	8159.11
731.77	8114.05
731.95	7956.36
732.13	7851.91
732.31	7939.97
732.50	7968.65
732.68	7774.09
732.86	7858.06
733.04	7800.71
733.22	7708.55
733.40	7806.86
733.59	7735.18
733.77	7659.40
733.95	7817.10
734.13	7718.79
734.31	7880.58
734.50	7755.66
734.68	7706.51
734.86	7640.97
735.04	7571.34
735.22	7493.52
735.41	7618.44
735.59	7440.27
735.77	7444.37
735.95	7726.99
736.13	7452.56
736.31	7571.34
736.50	7739.27
736.68	7649.16
736.86	7520.14
737.04	7407.50
737.22	7667.60
737.40	7460.75
737.59	7622.54
737.77	7473.04
737.95	7358.35
738.13	7356.30
738.31	7524.24
738.49	7520.14
738.67	7225.23
738.86	7294.86
739.04	7440.27
739.22	7600.01
739.40	7235.47
739.58	7565.20
739.76	7288.72
739.94	7372.69
740.13	7466.89
740.31	7268.24
740.49	7114.64
740.67	7366.54
740.85	7196.56
741.03	7102.36
741.21	7149.46
741.39	7190.42
741.58	7276.43
741.76	7038.87
741.94	7202.71
742.12	7268.24
742.30	7206.80
742.48	7204.75
742.66	7075.73
742.84	6977.43
743.03	7059.35
743.21	7024.53
743.39	6915.99
743.57	7036.82
743.75	6999.96
743.93	6950.81
744.11	6752.15
744.29	6887.32
744.47	6686.62
744.65	6979.48
744.84	6903.70
745.02	6670.23
745.20	6872.98
745.38	6500.25
745.56	6662.04
745.74	6686.62
745.92	6610.84
746.10	6643.61
746.28	6649.75
746.46	6647.71
746.64	6494.11
746.82	6645.66
747.01	6533.02
747.19	6438.81
747.37	6498.20
747.55	6588.32
747.73	6600.60
747.91	6410.14
748.09	6444.96
748.27	6492.06
748.45	6379.42
748.63	6397.85
748.81	6447.01
748.99	6401.95
749.17	6485.92
749.35	6516.64
749.53	6238.11
749.72	6397.85
749.90	6178.72
750.08	6332.32
750.26	6311.84
750.44	6401.95
750.62	6293.41
750.80	6135.71
750.98	6186.91
751.16	6180.77
751.34	6225.82
751.52	6172.58
751.70	6160.29
751.88	6289.31
752.06	6375.33
752.24	6076.32
752.42	6231.97
752.60	6289.31
752.78	5973.92
752.96	5994.40
753.14	6203.30
753.32	6059.94
753.50	6193.06
753.68	6082.47
753.86	6088.61
754.04	6021.03
754.22	6092.71
754.40	6148.00
754.58	5994.40
754.76	5963.68
754.94	6119.33
755.12	6266.78
755.30	6025.12
755.48	5898.15
755.66	6004.64
755.84	6000.55
756.02	6014.88
756.20	5836.71
756.38	6299.55
756.56	6016.93
756.74	5980.07
756.92	5914.53
757.10	5871.53
757.28	5922.73
757.46	5959.59
757.64	5949.35
757.82	5967.78
758.00	5910.44
758.18	5900.20
758.36	5752.74
758.54	5869.48
758.72	5904.29
758.90	5920.68
759.08	5773.22
759.26	5928.87
759.44	5652.39
759.62	5963.68
759.80	5746.60
759.98	5758.89
760.16	5771.18
760.34	5711.78
760.52	5769.13
760.70	5887.91
760.88	5783.46
761.06	5662.63
761.24	5840.81
761.42	5728.17
761.60	5873.57
761.77	5730.22
761.95	5787.56
762.13	5836.71
762.31	5582.76
762.49	5701.54
762.67	5752.74
762.85	5550.00
763.03	5572.52
763.21	5578.67
763.39	5550.00
763.57	5701.54
763.75	5619.63
763.93	5679.02
764.11	5394.35
764.29	5593.00
764.46	5423.02
764.64	5584.81
764.82	5566.38
765.00	5488.56
765.18	5466.03
765.36	5468.08
765.54	5423.02
765.72	5361.58
765.90	5486.51
766.08	5369.77
766.26	5253.04
766.44	5500.84
766.61	5269.42
766.79	5212.08
766.97	5287.86
767.15	5275.57
767.33	5361.58
767.51	5255.09
767.69	5420.97
767.87	5443.50
768.05	5242.80
768.22	5279.66
768.40	5310.38
768.58	5195.70
768.76	5136.31
768.94	5167.03
769.12	5257.14
769.30	5042.10
769.48	5138.35
769.66	4984.76
769.83	5025.72
770.01	4947.89
770.19	4954.04
770.37	5099.44
770.55	4886.45
770.73	5068.72
770.91	5072.82
771.09	4724.66
771.26	4886.45
771.44	5087.15
771.62	5081.01
771.80	4829.11
771.98	5017.52
772.16	4902.84
772.34	4728.76
772.51	4802.49
772.69	4972.47
772.87	4925.36
773.05	4773.82
773.23	4843.45
773.41	4728.76
773.58	4851.64
773.76	4769.72
773.94	4761.53
774.12	4913.08
774.30	4829.11
774.48	4779.96
774.65	4593.59
774.83	4734.90
775.01	4804.53
775.19	4616.12
775.37	4716.47
775.55	4777.91
775.72	4624.31
775.90	4700.09
776.08	4501.44
776.26	4861.88
776.44	4644.79
776.61	4554.68
776.79	4644.79
776.97	4466.62
777.15	4642.75
777.33	4425.66
777.51	4444.09
777.68	4444.09
777.86	4429.76
778.04	4470.72
778.22	4423.61
778.40	4411.32
778.57	4558.78
778.75	4319.17
778.93	4388.80
779.11	4429.76
779.29	4456.38
779.46	4423.61
779.64	4364.22
779.82	4372.41
780.00	4345.79
780.17	4366.27
780.35	4372.41
780.53	4323.26
780.71	4401.08
780.89	4308.93
781.06	4267.97
781.24	4304.83
781.42	4263.87
781.60	4345.79
781.77	4265.92
781.95	4184.00
782.13	4356.03
782.31	4231.10
782.48	4335.55
782.66	4206.53
782.84	4241.34
783.02	4188.10
783.19	4282.30
783.37	4016.07
783.55	4116.42
783.73	4083.65
783.90	4140.99
784.08	4245.44
784.26	4032.45
784.44	4093.89
784.61	4077.51
784.79	4147.14
784.97	3962.82
785.15	4118.47
785.32	4083.65
785.50	4153.28
785.68	4097.99
785.86	3987.40
786.03	3932.10
786.21	4204.48
786.39	4018.11
786.57	4069.31
786.74	4057.03
786.92	4022.21
787.10	4069.31
787.27	3850.18
787.45	4087.75
787.63	3981.25
787.81	4067.27
787.98	3903.43
788.16	3942.34
788.34	4161.47
788.51	3895.24
788.69	3866.56
788.87	4020.16
789.04	4130.75
789.22	4032.45
789.40	3876.80
789.58	3864.52
789.75	3852.23
789.93	3993.54
790.11	4016.07
790.28	3819.46
790.46	3979.20
790.64	3803.08
790.81	3942.34
790.99	3862.47
791.17	3981.25
791.34	3874.76
791.52	3782.60
791.70	3776.45
791.87	3760.07
792.05	3891.14
792.23	3825.61
792.40	3758.02
792.58	3723.21
792.76	3753.93
792.93	3770.31
793.11	3860.42
793.29	3788.74
793.46	3885.00
793.64	3819.46
793.82	3678.15
793.99	3753.93
794.17	3657.67
794.35	3641.29
794.52	3766.21
794.70	3739.59
794.88	3872.71
795.05	3588.04
795.23	3510.22
795.41	3698.63
795.58	3520.46
795.76	3704.78
795.94	3508.17
796.11	3729.35
796.29	3729.35
796.46	3749.83
796.64	3614.66
796.82	3678.15
796.99	3653.58
797.17	3631.05
797.35	3700.68
797.52	3600.33
797.70	3647.43
797.87	3772.36
798.05	3717.06
798.23	3659.72
798.40	3639.24
798.58	3504.07
798.76	3520.46
798.93	3676.10
799.11	3592.14
799.28	3696.58
799.46	3620.81
799.64	3491.79
799.81	3598.28
799.99	3604.42
800.16	3485.64
800.34	3520.46
800.52	3444.68
800.69	3499.98
800.87	3647.43
801.04	3444.68
801.22	3436.49
801.39	3499.98
801.57	3422.16
801.75	3338.19
801.92	3506.12
802.10	3473.36
802.27	3370.96
802.45	3600.33
802.63	3454.92
802.80	3559.37
802.98	3405.77
803.15	3434.44
803.33	3356.62
803.50	3418.06
803.68	3354.57
803.86	3489.74
804.03	3463.12
804.21	3536.84
804.38	3530.70
804.56	3596.23
804.73	3379.15
804.91	3284.94
805.08	3352.52
805.26	3278.80
805.44	3387.34
805.61	3430.35
805.79	3366.86
805.96	3323.85
806.14	3463.12
806.31	3286.99
806.49	3299.28
806.66	3395.53
806.84	3303.37
807.01	3393.48
807.19	3313.61
807.36	3246.03
807.54	3282.89
807.71	3119.06
807.89	3299.28
808.07	3420.11
808.24	3262.41
808.42	3358.67
808.59	3409.87
808.77	3254.22
808.94	3395.53
809.12	3360.72
809.29	3399.63
809.47	3225.55
809.64	3186.64
809.82	3213.26
809.99	3153.87
810.17	3198.93
810.34	3207.12
810.52	3059.67
810.69	3321.81
810.87	3184.59
811.04	3205.07
811.22	3219.41
811.39	3184.59
811.57	3141.58
811.74	3086.29
811.92	3114.96
812.09	3340.24
812.27	3258.32
812.44	3076.05
812.62	3289.04
812.79	3153.87
812.97	3248.08
813.14	3098.58
813.31	3024.85
813.49	3162.06
813.66	3057.62
813.84	3170.26
814.01	3198.93
814.19	3059.67
814.36	3133.39
814.54	3108.82
814.71	3100.62
814.89	3010.51
815.06	3125.20
815.24	3057.62
815.41	3061.71
815.58	3112.91
815.76	3282.89
815.93	3162.06
816.11	3184.59
816.28	2920.40
816.46	3178.45
816.63	3112.91
816.81	2889.68
816.98	3006.42
817.15	2881.49
817.33	3102.67
817.50	2930.64
817.68	2856.92
817.85	3053.52
818.03	2975.70
818.20	3008.47
818.37	2973.65
818.55	2930.64
818.72	2916.31
818.90	2912.21
819.07	3162.06
819.25	3110.86
819.42	2975.70
819.59	2881.49
819.77	2908.12
819.94	2887.64
820.12	3037.14
820.29	3035.09
820.46	2811.86
820.64	2848.72
820.81	2869.20
820.99	2893.78
821.16	2789.33
821.33	2920.40
821.51	3037.14
821.68	2887.64
821.86	3078.10
822.03	2883.54
822.20	3010.51
822.38	2832.34
822.55	2908.12
822.73	2799.57
822.90	2908.12
823.07	2707.41
823.25	2854.87
823.42	2842.58
823.59	2772.95
823.77	2920.40
823.94	2934.74
824.12	2805.72
824.29	2760.66
824.46	2869.20
824.64	2668.50
824.81	2811.86
824.98	2639.83
825.16	2750.42
825.33	2731.99
825.50	2793.43
825.68	2838.48
825.85	2846.68
826.03	2760.66
826.20	2693.08
826.37	2832.34
826.55	2727.89
826.72	2793.43
826.89	2752.47
827.07	2809.81
827.24	2574.30
827.41	2699.22
827.59	2666.46
827.76	2707.41
827.93	2631.64
828.11	2641.88
828.28	2725.85
828.45	2756.57
828.63	2635.74
828.80	2648.02
828.97	2678.74
829.15	2715.61
829.32	2553.82
829.49	2656.22
829.67	2562.01
829.84	2598.87
830.01	2545.63
830.18	2697.17
830.36	2650.07
830.53	2602.97
830.70	2613.21
830.88	2602.97
831.05	2482.14
831.22	2578.39
831.40	2459.61
831.57	2568.15
831.74	2777.05
831.91	2555.86
832.09	2588.63
832.26	2598.87
832.43	2621.40
832.61	2584.54
832.78	2484.19
832.95	2529.24
833.13	2600.92
833.30	2549.72
833.47	2602.97
833.64	2486.23
833.82	2684.89
833.99	2424.80
834.16	2504.67
834.33	2566.10
834.51	2467.80
834.68	2619.35
834.85	2439.13
835.03	2449.37
835.20	2428.89
835.37	2381.79
835.54	2400.22
835.72	2611.16
835.89	2426.84
836.06	2445.27
836.23	2461.66
836.41	2469.85
836.58	2449.37
836.75	2447.32
836.92	2447.32
837.10	2369.50
837.27	2357.21
837.44	2570.20
837.61	2326.49
837.78	2449.37
837.96	2445.27
838.13	2443.23
838.30	2418.65
838.47	2459.61
838.65	2275.29
838.82	2404.32
838.99	2310.11
839.16	2297.82
839.34	2443.23
839.51	2297.82
839.68	2295.77
839.85	2373.60
840.02	2332.64
840.20	2209.76
840.37	2295.77
840.54	2312.16
840.71	2605.02
840.88	2234.33
841.06	2308.06
841.23	2379.74
841.40	2414.56
841.57	2385.88
841.74	2121.70
841.92	2303.96
842.09	2340.83
842.26	2250.72
842.43	2215.90
842.60	2211.81
842.78	2279.39
842.95	2193.37
843.12	2293.72
843.29	2205.66
843.46	2205.66
843.64	2320.35
843.81	2215.90
843.98	2326.49
844.15	2357.21
844.32	2160.61
844.49	2111.46
844.67	2316.25
844.84	2254.81
845.01	2150.37
845.18	2174.94
845.35	2217.95
845.52	2129.89
845.70	2363.36
845.87	2228.19
846.04	2303.96
846.21	2123.74
846.38	2316.25
846.55	2060.26
846.72	2187.23
846.90	2215.90
847.07	2043.87
847.24	2148.32
847.41	2168.80
847.58	2074.59
847.75	2062.30
847.92	2131.94
848.10	2099.17
848.27	2000.87
848.44	2215.90
848.61	2066.40
848.78	2152.42
848.95	2050.02
849.12	2019.30
849.29	2117.60
849.47	2199.52
849.64	2047.97
849.81	2125.79
849.98	2129.89
850.15	2084.83
850.32	2070.50
850.49	2021.35
850.66	1978.34
850.84	2045.92
851.01	1972.19
851.18	2131.94
851.35	1959.91
851.52	1964.00
851.69	2109.41
851.86	2086.88
852.03	2099.17
852.20	1931.23
852.37	2023.39
852.54	2099.17
852.72	2045.92
852.89	2142.18
853.06	2035.68
853.23	1968.10
853.40	1992.67
853.57	1886.18
853.74	1945.57
853.91	1957.86
854.08	1888.23
854.25	1804.26
854.42	1927.14
854.59	1957.86
854.76	1980.39
854.94	1914.85
855.11	1959.91
855.28	1923.04
855.45	1953.76
855.62	1947.62
855.79	1945.57
855.96	1880.04
856.13	1847.27
856.30	1775.59
856.47	1886.18
856.64	1931.23
856.81	1929.19
856.98	1880.04
857.15	1787.88
857.32	1767.40
857.49	1873.89
857.66	1808.36
857.83	1841.12
858.00	1966.05
858.17	1894.37
858.35	1896.42
858.52	1845.22
858.69	1845.22
858.86	1794.02
859.03	1818.60
859.20	1898.47
859.37	1843.17
859.54	1900.52
859.71	1869.80
859.88	1726.44
860.05	1822.69
860.22	1802.21
860.39	1832.93
860.56	1771.49
860.73	1748.97
860.90	1814.50
861.07	1796.07
861.24	1855.46
861.41	1857.51
861.58	1656.81
861.75	1705.96
861.92	1781.73
862.09	1816.55
862.26	1794.02
862.43	1732.58
862.60	1796.07
862.77	1906.66
862.94	1773.54
863.11	1714.15
863.28	1873.89
863.45	1658.85
863.62	1765.35
863.79	1693.67
863.96	1841.12
864.13	1816.55
864.30	1740.77
864.46	1738.73
864.63	1777.64
864.80	1716.20
864.97	1855.46
865.14	1521.64
865.31	1767.40
865.48	1761.25
865.65	1728.49
865.82	1740.77
865.99	1742.82
866.16	1847.27
866.33	1732.58
866.50	1695.72
866.67	1910.75
866.84	1646.57
867.01	1800.16
867.18	1804.26
867.35	1830.88
867.52	1847.27
867.69	1728.49
867.85	1693.67
868.02	1771.49
868.19	1759.21
868.36	1624.04
868.53	1816.55
868.70	1726.44
868.87	1675.24
869.04	1753.06
869.21	1687.53
869.38	1677.29
869.55	1771.49
869.72	1724.39
869.89	1591.27
870.05	1591.27
870.22	1632.23
870.39	1574.89
870.56	1820.64
870.73	1644.52
870.90	1789.92
871.07	1628.14
871.24	1726.44
871.41	1683.43
871.58	1603.56
871.74	1597.42
871.91	1548.26
872.08	1679.33
872.25	1572.84
872.42	1640.42
872.59	1527.78
872.76	1683.43
872.93	1798.12
873.10	1665.00
873.26	1679.33
873.43	1718.25
873.60	1699.81
873.77	1523.69
873.94	1652.71
874.11	1726.44
874.28	1759.21
874.45	1710.05
874.61	1601.51
874.78	1615.85
874.95	1628.14
875.12	1673.19
875.29	1751.01
875.46	1628.14
875.63	1794.02
875.79	1540.07
875.96	1634.28
876.13	1505.26
876.30	1572.84
876.47	1521.64
876.64	1660.90
876.80	1538.02
876.97	1677.29
877.14	1638.38
877.31	1662.95
877.48	1673.19
877.65	1716.20
877.81	1648.61
877.98	1513.45
878.15	1681.38
878.32	1521.64
878.49	1730.53
878.66	1609.70
878.82	1656.81
878.99	1630.18
879.16	1535.98
879.33	1499.11
879.50	1761.25
879.67	1710.05
879.83	1521.64
880.00	1548.26
880.17	1585.13
880.34	1560.55
880.51	1427.43
880.67	1630.18
880.84	1712.10
881.01	1669.09
881.18	1611.75
881.35	1566.70
881.51	1718.25
881.68	1628.14
881.85	1673.19
882.02	1423.34
882.18	1576.94
882.35	1570.79
882.52	1458.15
882.69	1568.74
882.86	1599.46
883.02	1495.02
883.19	1486.83
883.36	1638.38
883.53	1548.26
883.69	1583.08
883.86	1468.39
884.03	1603.56
884.20	1574.89
884.36	1558.50
884.53	1687.53
884.70	1560.55
884.87	1415.15
885.04	1687.53
885.20	1630.18
885.37	1581.03
885.54	1595.37
885.71	1658.85
885.87	1478.63
886.04	1380.33
886.21	1574.89
886.38	1646.57
886.54	1587.18
886.71	1517.54
886.88	1693.67
>>>>>End Processed Spectral Data<<<<<
