SpectraSuite Data File
++++++++++++++++++++++++++++++++++++
Date: Fri May 01 10:31:54 EST 2015
User: ocean
Dark Spectrum Present: No
Reference Spectrum Present: No
Number of Sampled Component Spectra: 1
Spectrometers: USB4E02642
Integration Time (usec): 150000 (USB4E02642)
Spectra Averaged: 1 (USB4E02642)
Boxcar Smoothing: 0 (USB4E02642)
Correct for Electrical Dark: No (USB4E02642)
Strobe/Lamp Enabled: No (USB4E02642)
Correct for Detector Non-linearity: No (USB4E02642)
Correct for Stray Light: No (USB4E02642)
Number of Pixels in Processed Spectrum: 3648
>>>>>Begin Processed Spectral Data<<<<<
179.22	1052.66
179.43	1052.66
179.65	1052.66
179.86	1017.84
180.08	1048.56
180.29	1380.33
180.51	1200.11
180.72	1314.80
180.94	1322.99
181.15	1198.06
181.37	1351.66
181.58	1181.68
181.80	1333.23
182.01	1322.99
182.23	1308.65
182.44	1339.37
182.66	1282.03
182.87	1320.94
183.09	1232.88
183.30	1257.45
183.52	1306.60
183.73	1220.59
183.95	1265.64
184.16	1239.02
184.38	1333.23
184.59	1273.84
184.81	1351.66
185.02	1294.32
185.24	1241.07
185.45	1306.60
185.67	1300.46
185.88	1366.00
186.10	1214.45
186.31	1284.08
186.53	1308.65
186.74	1222.64
186.96	1351.66
187.17	1339.37
187.39	1216.49
187.60	1316.84
187.81	1409.00
188.03	1312.75
188.24	1314.80
188.46	1232.88
188.67	1509.35
188.89	1187.82
189.10	1392.62
189.32	1267.69
189.53	1357.80
189.75	1392.62
189.96	1374.19
190.18	1363.95
190.39	1325.04
190.61	1361.90
190.82	1224.69
191.04	1368.04
191.25	1468.39
191.46	1376.24
191.68	1279.98
191.89	1302.51
192.11	1251.31
192.32	1245.16
192.54	1259.50
192.75	1296.36
192.97	1366.00
193.18	1257.45
193.40	1363.95
193.61	1345.52
193.83	1290.22
194.04	1353.71
194.25	1394.67
194.47	1343.47
194.68	1325.04
194.90	1325.04
195.11	1425.39
195.33	1304.56
195.54	1349.61
195.76	1292.27
195.97	1314.80
196.18	1286.12
196.40	1384.43
196.61	1239.02
196.83	1333.23
197.04	1335.28
197.26	1423.34
197.47	1398.76
197.69	1284.08
197.90	1310.70
198.11	1288.17
198.33	1341.42
198.54	1214.45
198.76	1353.71
198.97	1359.85
199.19	1189.87
199.40	1378.28
199.61	1269.74
199.83	1255.40
200.04	1415.15
200.26	1331.18
200.47	1275.88
200.69	1339.37
200.90	1460.20
201.11	1316.84
201.33	1249.26
201.54	1409.00
201.76	1429.48
201.97	1308.65
202.19	1376.24
202.40	1382.38
202.61	1357.80
202.83	1304.56
203.04	1378.28
203.26	1392.62
203.47	1413.10
203.68	1368.04
203.90	1239.02
204.11	1259.50
204.33	1257.45
204.54	1337.32
204.75	1341.42
204.97	1249.26
205.18	1269.74
205.40	1296.36
205.61	1304.56
205.83	1552.36
206.04	1196.01
206.25	1314.80
206.47	1331.18
206.68	1413.10
206.90	1353.71
207.11	1273.84
207.32	1253.36
207.54	1290.22
207.75	1357.80
207.97	1312.75
208.18	1263.60
208.39	1279.98
208.61	1306.60
208.82	1353.71
209.03	1288.17
209.25	1386.47
209.46	1382.38
209.68	1327.08
209.89	1310.70
210.10	1300.46
210.32	1349.61
210.53	1353.71
210.75	1415.15
210.96	1269.74
211.17	1255.40
211.39	1306.60
211.60	1286.12
211.82	1126.38
212.03	1316.84
212.24	1308.65
212.46	1351.66
212.67	1357.80
212.88	1243.12
213.10	1302.51
213.31	1359.85
213.53	1404.91
213.74	1368.04
213.95	1386.47
214.17	1257.45
214.38	1376.24
214.59	1271.79
214.81	1419.24
215.02	1353.71
215.23	1265.64
215.45	1239.02
215.66	1273.84
215.88	1312.75
216.09	1273.84
216.30	1394.67
216.52	1284.08
216.73	1191.92
216.94	1337.32
217.16	1370.09
217.37	1363.95
217.58	1279.98
217.80	1486.83
218.01	1320.94
218.22	1308.65
218.44	1333.23
218.65	1372.14
218.87	1298.41
219.08	1415.15
219.29	1363.95
219.51	1363.95
219.72	1277.93
219.93	1341.42
220.15	1431.53
220.36	1249.26
220.57	1415.15
220.79	1236.97
221.00	1249.26
221.21	1454.06
221.43	1361.90
221.64	1292.27
221.85	1341.42
222.07	1327.08
222.28	1273.84
222.49	1269.74
222.71	1269.74
222.92	1200.11
223.13	1247.21
223.35	1214.45
223.56	1271.79
223.77	1218.54
223.99	1329.13
224.20	1343.47
224.41	1232.88
224.63	1419.24
224.84	1314.80
225.05	1378.28
225.27	1398.76
225.48	1441.77
225.69	1322.99
225.91	1241.07
226.12	1294.32
226.33	1472.49
226.55	1294.32
226.76	1282.03
226.97	1331.18
227.19	1331.18
227.40	1263.60
227.61	1386.47
227.82	1380.33
228.04	1259.50
228.25	1288.17
228.46	1222.64
228.68	1353.71
228.89	1370.09
229.10	1265.64
229.32	1325.04
229.53	1206.25
229.74	1413.10
229.96	1271.79
230.17	1351.66
230.38	1425.39
230.59	1234.93
230.81	1273.84
231.02	1204.21
231.23	1288.17
231.45	1388.52
231.66	1286.12
231.87	1404.91
232.09	1351.66
232.30	1288.17
232.51	1433.58
232.72	1284.08
232.94	1222.64
233.15	1449.96
233.36	1136.62
233.58	1277.93
233.79	1259.50
234.00	1298.41
234.21	1318.89
234.43	1302.51
234.64	1267.69
234.85	1384.43
235.07	1292.27
235.28	1347.56
235.49	1296.36
235.70	1445.87
235.92	1374.19
236.13	1265.64
236.34	1333.23
236.56	1243.12
236.77	1286.12
236.98	1333.23
237.19	1312.75
237.41	1310.70
237.62	1294.32
237.83	1427.43
238.04	1382.38
238.26	1370.09
238.47	1411.05
238.68	1370.09
238.89	1310.70
239.11	1427.43
239.32	1312.75
239.53	1333.23
239.75	1263.60
239.96	1226.73
240.17	1284.08
240.38	1261.55
240.60	1331.18
240.81	1267.69
241.02	1357.80
241.23	1230.83
241.45	1388.52
241.66	1245.16
241.87	1380.33
242.08	1351.66
242.30	1224.69
242.51	1333.23
242.72	1234.93
242.93	1300.46
243.15	1339.37
243.36	1404.91
243.57	1290.22
243.78	1355.76
244.00	1306.60
244.21	1226.73
244.42	1279.98
244.63	1402.86
244.85	1316.84
245.06	1265.64
245.27	1345.52
245.48	1294.32
245.70	1347.56
245.91	1425.39
246.12	1230.83
246.33	1335.28
246.54	1425.39
246.76	1304.56
246.97	1327.08
247.18	1200.11
247.39	1329.13
247.61	1406.95
247.82	1353.71
248.03	1308.65
248.24	1292.27
248.45	1357.80
248.67	1314.80
248.88	1357.80
249.09	1290.22
249.30	1306.60
249.52	1374.19
249.73	1304.56
249.94	1251.31
250.15	1402.86
250.36	1345.52
250.58	1525.74
250.79	1322.99
251.00	1243.12
251.21	1419.24
251.43	1353.71
251.64	1466.35
251.85	1251.31
252.06	1288.17
252.27	1374.19
252.49	1411.05
252.70	1306.60
252.91	1363.95
253.12	1298.41
253.33	1382.38
253.55	1247.21
253.76	1294.32
253.97	1382.38
254.18	1325.04
254.39	1255.40
254.61	1298.41
254.82	1378.28
255.03	1361.90
255.24	1312.75
255.45	1271.79
255.67	1282.03
255.88	1298.41
256.09	1333.23
256.30	1273.84
256.51	1521.64
256.73	1441.77
256.94	1136.62
257.15	1462.25
257.36	1312.75
257.57	1433.58
257.78	1318.89
258.00	1337.32
258.21	1404.91
258.42	1300.46
258.63	1292.27
258.84	1359.85
259.06	1308.65
259.27	1331.18
259.48	1353.71
259.69	1396.71
259.90	1255.40
260.11	1445.87
260.33	1236.97
260.54	1314.80
260.75	1292.27
260.96	1318.89
261.17	1312.75
261.38	1431.53
261.60	1363.95
261.81	1322.99
262.02	1343.47
262.23	1341.42
262.44	1409.00
262.65	1366.00
262.87	1290.22
263.08	1347.56
263.29	1380.33
263.50	1325.04
263.71	1318.89
263.92	1189.87
264.13	1372.14
264.35	1329.13
264.56	1372.14
264.77	1400.81
264.98	1341.42
265.19	1210.35
265.40	1325.04
265.62	1390.57
265.83	1361.90
266.04	1316.84
266.25	1419.24
266.46	1357.80
266.67	1402.86
266.88	1345.52
267.10	1337.32
267.31	1347.56
267.52	1277.93
267.73	1167.34
267.94	1333.23
268.15	1228.78
268.36	1322.99
268.57	1423.34
268.79	1304.56
269.00	1304.56
269.21	1257.45
269.42	1318.89
269.63	1275.88
269.84	1290.22
270.05	1331.18
270.27	1251.31
270.48	1304.56
270.69	1290.22
270.90	1255.40
271.11	1284.08
271.32	1458.15
271.53	1308.65
271.74	1273.84
271.96	1345.52
272.17	1232.88
272.38	1275.88
272.59	1251.31
272.80	1318.89
273.01	1275.88
273.22	1210.35
273.43	1378.28
273.64	1220.59
273.86	1425.39
274.07	1275.88
274.28	1277.93
274.49	1376.24
274.70	1312.75
274.91	1337.32
275.12	1470.44
275.33	1232.88
275.54	1331.18
275.76	1292.27
275.97	1279.98
276.18	1349.61
276.39	1277.93
276.60	1279.98
276.81	1413.10
277.02	1253.36
277.23	1298.41
277.44	1292.27
277.65	1277.93
277.86	1366.00
278.08	1370.09
278.29	1398.76
278.50	1439.72
278.71	1236.97
278.92	1271.79
279.13	1150.96
279.34	1267.69
279.55	1353.71
279.76	1359.85
279.97	1216.49
280.18	1456.11
280.40	1374.19
280.61	1220.59
280.82	1257.45
281.03	1292.27
281.24	1378.28
281.45	1288.17
281.66	1279.98
281.87	1388.52
282.08	1353.71
282.29	1431.53
282.50	1202.16
282.71	1236.97
282.92	1417.19
283.13	1366.00
283.35	1292.27
283.56	1433.58
283.77	1255.40
283.98	1363.95
284.19	1339.37
284.40	1232.88
284.61	1296.36
284.82	1427.43
285.03	1423.34
285.24	1245.16
285.45	1306.60
285.66	1308.65
285.87	1282.03
286.08	1320.94
286.29	1294.32
286.50	1239.02
286.71	1243.12
286.93	1288.17
287.14	1304.56
287.35	1296.36
287.56	1333.23
287.77	1396.71
287.98	1306.60
288.19	1312.75
288.40	1333.23
288.61	1294.32
288.82	1386.47
289.03	1347.56
289.24	1370.09
289.45	1374.19
289.66	1361.90
289.87	1415.15
290.08	1263.60
290.29	1316.84
290.50	1351.66
290.71	1306.60
290.92	1355.76
291.13	1355.76
291.34	1396.71
291.55	1247.21
291.76	1224.69
291.97	1193.97
292.18	1370.09
292.39	1177.58
292.61	1273.84
292.82	1222.64
293.03	1462.25
293.24	1271.79
293.45	1198.06
293.66	1331.18
293.87	1306.60
294.08	1308.65
294.29	1224.69
294.50	1349.61
294.71	1333.23
294.92	1263.60
295.13	1335.28
295.34	1282.03
295.55	1292.27
295.76	1308.65
295.97	1382.38
296.18	1382.38
296.39	1275.88
296.60	1417.19
296.81	1263.60
297.02	1245.16
297.23	1456.11
297.44	1318.89
297.65	1355.76
297.86	1316.84
298.07	1241.07
298.28	1341.42
298.49	1153.01
298.70	1275.88
298.91	1341.42
299.12	1243.12
299.33	1200.11
299.54	1331.18
299.75	1320.94
299.96	1363.95
300.17	1402.86
300.38	1241.07
300.59	1165.29
300.80	1327.08
301.01	1253.36
301.22	1279.98
301.43	1300.46
301.64	1304.56
301.85	1185.77
302.06	1406.95
302.27	1269.74
302.48	1562.60
302.69	1216.49
302.89	1292.27
303.10	1302.51
303.31	1212.40
303.52	1355.76
303.73	1378.28
303.94	1286.12
304.15	1290.22
304.36	1320.94
304.57	1243.12
304.78	1400.81
304.99	1212.40
305.20	1325.04
305.41	1347.56
305.62	1406.95
305.83	1308.65
306.04	1198.06
306.25	1304.56
306.46	1230.83
306.67	1404.91
306.88	1351.66
307.09	1259.50
307.30	1349.61
307.51	1366.00
307.72	1339.37
307.93	1210.35
308.14	1265.64
308.35	1302.51
308.55	1316.84
308.76	1218.54
308.97	1200.11
309.18	1429.48
309.39	1349.61
309.60	1306.60
309.81	1300.46
310.02	1179.63
310.23	1236.97
310.44	1210.35
310.65	1341.42
310.86	1292.27
311.07	1411.05
311.28	1288.17
311.49	1322.99
311.70	1314.80
311.91	1267.69
312.11	1325.04
312.32	1286.12
312.53	1298.41
312.74	1339.37
312.95	1261.55
313.16	1406.95
313.37	1345.52
313.58	1267.69
313.79	1077.23
314.00	1247.21
314.21	1202.16
314.42	1284.08
314.63	1243.12
314.83	1349.61
315.04	1404.91
315.25	1380.33
315.46	1380.33
315.67	1353.71
315.88	1220.59
316.09	1361.90
316.30	1322.99
316.51	1306.60
316.72	1234.93
316.93	1218.54
317.13	1318.89
317.34	1224.69
317.55	1441.77
317.76	1232.88
317.97	1306.60
318.18	1374.19
318.39	1384.43
318.60	1277.93
318.81	1263.60
319.02	1361.90
319.23	1406.95
319.43	1372.14
319.64	1327.08
319.85	1329.13
320.06	1331.18
320.27	1251.31
320.48	1312.75
320.69	1308.65
320.90	1251.31
321.11	1333.23
321.31	1306.60
321.52	1335.28
321.73	1314.80
321.94	1382.38
322.15	1290.22
322.36	1468.39
322.57	1429.48
322.78	1193.97
322.98	1380.33
323.19	1374.19
323.40	1394.67
323.61	1325.04
323.82	1267.69
324.03	1241.07
324.24	1449.96
324.45	1343.47
324.65	1247.21
324.86	1314.80
325.07	1421.29
325.28	1230.83
325.49	1349.61
325.70	1292.27
325.91	1345.52
326.12	1171.44
326.32	1202.16
326.53	1316.84
326.74	1243.12
326.95	1472.49
327.16	1331.18
327.37	1460.20
327.58	1304.56
327.78	1302.51
327.99	1236.97
328.20	1304.56
328.41	1259.50
328.62	1175.53
328.83	1271.79
329.04	1288.17
329.24	1255.40
329.45	1255.40
329.66	1374.19
329.87	1308.65
330.08	1335.28
330.29	1333.23
330.49	1452.01
330.70	1208.30
330.91	1212.40
331.12	1339.37
331.33	1241.07
331.54	1380.33
331.74	1275.88
331.95	1279.98
332.16	1265.64
332.37	1275.88
332.58	1384.43
332.79	1320.94
332.99	1300.46
333.20	1400.81
333.41	1376.24
333.62	1288.17
333.83	1339.37
334.04	1263.60
334.24	1392.62
334.45	1200.11
334.66	1249.26
334.87	1284.08
335.08	1341.42
335.29	1216.49
335.49	1382.38
335.70	1400.81
335.91	1314.80
336.12	1351.66
336.33	1226.73
336.53	1277.93
336.74	1208.30
336.95	1378.28
337.16	1136.62
337.37	1294.32
337.57	1196.01
337.78	1296.36
337.99	1259.50
338.20	1312.75
338.41	1282.03
338.62	1255.40
338.82	1357.80
339.03	1294.32
339.24	1363.95
339.45	1292.27
339.65	1204.21
339.86	1343.47
340.07	1392.62
340.28	1288.17
340.49	1333.23
340.69	1300.46
340.90	1372.14
341.11	1406.95
341.32	1267.69
341.53	1144.81
341.73	1347.56
341.94	1296.36
342.15	1361.90
342.36	1341.42
342.57	1423.34
342.77	1263.60
342.98	1306.60
343.19	1298.41
343.40	1316.84
343.60	1288.17
343.81	1339.37
344.02	1304.56
344.23	1314.80
344.44	1226.73
344.64	1241.07
344.85	1341.42
345.06	1282.03
345.27	1204.21
345.47	1210.35
345.68	1355.76
345.89	1296.36
346.10	1443.82
346.30	1269.74
346.51	1312.75
346.72	1409.00
346.93	1316.84
347.13	1249.26
347.34	1437.67
347.55	1267.69
347.76	1339.37
347.97	1437.67
348.17	1210.35
348.38	1232.88
348.59	1200.11
348.80	1253.36
349.00	1243.12
349.21	1357.80
349.42	1413.10
349.63	1429.48
349.83	1265.64
350.04	1284.08
350.25	1267.69
350.45	1253.36
350.66	1290.22
350.87	1298.41
351.08	1300.46
351.28	1439.72
351.49	1284.08
351.70	1361.90
351.91	1224.69
352.11	1308.65
352.32	1361.90
352.53	1363.95
352.74	1226.73
352.94	1279.98
353.15	1310.70
353.36	1279.98
353.56	1269.74
353.77	1265.64
353.98	1382.38
354.19	1339.37
354.39	1189.87
354.60	1263.60
354.81	1413.10
355.02	1208.30
355.22	1361.90
355.43	1275.88
355.64	1261.55
355.84	1359.85
356.05	1286.12
356.26	1372.14
356.47	1341.42
356.67	1325.04
356.88	1304.56
357.09	1273.84
357.29	1325.04
357.50	1427.43
357.71	1230.83
357.92	1316.84
358.12	1275.88
358.33	1314.80
358.54	1284.08
358.74	1318.89
358.95	1347.56
359.16	1308.65
359.36	1255.40
359.57	1363.95
359.78	1351.66
359.98	1273.84
360.19	1269.74
360.40	1441.77
360.61	1327.08
360.81	1267.69
361.02	1214.45
361.23	1257.45
361.43	1282.03
361.64	1185.77
361.85	1304.56
362.05	1429.48
362.26	1255.40
362.47	1263.60
362.67	1257.45
362.88	1327.08
363.09	1292.27
363.29	1314.80
363.50	1204.21
363.71	1318.89
363.91	1368.04
364.12	1409.00
364.33	1243.12
364.53	1415.15
364.74	1282.03
364.95	1376.24
365.15	1312.75
365.36	1202.16
365.57	1355.76
365.77	1347.56
365.98	1378.28
366.19	1372.14
366.39	1296.36
366.60	1347.56
366.81	1193.97
367.01	1386.47
367.22	1302.51
367.43	1417.19
367.63	1249.26
367.84	1333.23
368.05	1275.88
368.25	1267.69
368.46	1349.61
368.67	1271.79
368.87	1275.88
369.08	1220.59
369.29	1312.75
369.49	1320.94
369.70	1312.75
369.91	1316.84
370.11	1269.74
370.32	1212.40
370.52	1312.75
370.73	1347.56
370.94	1245.16
371.14	1374.19
371.35	1333.23
371.56	1423.34
371.76	1378.28
371.97	1495.02
372.18	1206.25
372.38	1279.98
372.59	1353.71
372.79	1292.27
373.00	1263.60
373.21	1417.19
373.41	1345.52
373.62	1251.31
373.83	1275.88
374.03	1265.64
374.24	1382.38
374.44	1304.56
374.65	1390.57
374.86	1314.80
375.06	1372.14
375.27	1312.75
375.47	1390.57
375.68	1372.14
375.89	1294.32
376.09	1378.28
376.30	1298.41
376.50	1341.42
376.71	1386.47
376.92	1327.08
377.12	1302.51
377.33	1310.70
377.54	1294.32
377.74	1286.12
377.95	1411.05
378.15	1357.80
378.36	1327.08
378.57	1368.04
378.77	1368.04
378.98	1290.22
379.18	1263.60
379.39	1288.17
379.59	1275.88
379.80	1312.75
380.01	1314.80
380.21	1370.09
380.42	1282.03
380.62	1351.66
380.83	1255.40
381.04	1322.99
381.24	1349.61
381.45	1409.00
381.65	1382.38
381.86	1253.36
382.06	1400.81
382.27	1359.85
382.48	1202.16
382.68	1378.28
382.89	1404.91
383.09	1380.33
383.30	1384.43
383.51	1322.99
383.71	1433.58
383.92	1193.97
384.12	1331.18
384.33	1325.04
384.53	1314.80
384.74	1337.32
384.94	1394.67
385.15	1372.14
385.36	1404.91
385.56	1335.28
385.77	1327.08
385.97	1241.07
386.18	1222.64
386.38	1366.00
386.59	1300.46
386.79	1306.60
387.00	1241.07
387.21	1449.96
387.41	1456.11
387.62	1478.63
387.82	1273.84
388.03	1353.71
388.23	1374.19
388.44	1390.57
388.64	1292.27
388.85	1392.62
389.06	1298.41
389.26	1310.70
389.47	1378.28
389.67	1259.50
389.88	1546.22
390.08	1220.59
390.29	1409.00
390.49	1279.98
390.70	1439.72
390.90	1413.10
391.11	1380.33
391.31	1335.28
391.52	1296.36
391.72	1439.72
391.93	1298.41
392.13	1372.14
392.34	1210.35
392.55	1337.32
392.75	1341.42
392.96	1296.36
393.16	1460.20
393.37	1353.71
393.57	1312.75
393.78	1347.56
393.98	1374.19
394.19	1345.52
394.39	1327.08
394.60	1411.05
394.80	1325.04
395.01	1370.09
395.21	1505.26
395.42	1443.82
395.62	1236.97
395.83	1306.60
396.03	1394.67
396.24	1527.78
396.44	1413.10
396.65	1322.99
396.85	1341.42
397.06	1380.33
397.26	1327.08
397.47	1357.80
397.67	1427.43
397.88	1380.33
398.08	1302.51
398.29	1366.00
398.49	1335.28
398.70	1394.67
398.90	1245.16
399.11	1353.71
399.31	1464.30
399.52	1353.71
399.72	1366.00
399.93	1458.15
400.13	1386.47
400.34	1404.91
400.54	1535.98
400.75	1339.37
400.95	1370.09
401.15	1482.73
401.36	1366.00
401.56	1406.95
401.77	1359.85
401.97	1357.80
402.18	1322.99
402.38	1355.76
402.59	1382.38
402.79	1382.38
403.00	1353.71
403.20	1370.09
403.41	1394.67
403.61	1345.52
403.82	1378.28
404.02	1343.47
404.22	1374.19
404.43	1359.85
404.63	1386.47
404.84	1437.67
405.04	1267.69
405.25	1413.10
405.45	1380.33
405.66	1286.12
405.86	1339.37
406.07	1472.49
406.27	1325.04
406.47	1351.66
406.68	1345.52
406.88	1345.52
407.09	1433.58
407.29	1488.87
407.50	1230.83
407.70	1458.15
407.91	1314.80
408.11	1419.24
408.31	1466.35
408.52	1415.15
408.72	1378.28
408.93	1390.57
409.13	1540.07
409.34	1564.65
409.54	1402.86
409.74	1429.48
409.95	1300.46
410.15	1388.52
410.36	1341.42
410.56	1325.04
410.77	1531.88
410.97	1409.00
411.17	1538.02
411.38	1425.39
411.58	1480.68
411.79	1482.73
411.99	1423.34
412.19	1390.57
412.40	1458.15
412.60	1576.94
412.81	1478.63
413.01	1497.07
413.22	1456.11
413.42	1423.34
413.62	1425.39
413.83	1478.63
414.03	1413.10
414.24	1511.40
414.44	1468.39
414.64	1458.15
414.85	1392.62
415.05	1452.01
415.26	1437.67
415.46	1406.95
415.66	1443.82
415.87	1492.97
416.07	1409.00
416.28	1380.33
416.48	1538.02
416.68	1482.73
416.89	1386.47
417.09	1509.35
417.29	1439.72
417.50	1484.78
417.70	1390.57
417.91	1472.49
418.11	1378.28
418.31	1443.82
418.52	1443.82
418.72	1488.87
418.93	1509.35
419.13	1415.15
419.33	1488.87
419.54	1488.87
419.74	1452.01
419.94	1556.46
420.15	1495.02
420.35	1458.15
420.56	1404.91
420.76	1398.76
420.96	1452.01
421.17	1458.15
421.37	1460.20
421.57	1366.00
421.78	1605.61
421.98	1517.54
422.18	1568.74
422.39	1554.41
422.59	1439.72
422.80	1527.78
423.00	1460.20
423.20	1503.21
423.41	1452.01
423.61	1478.63
423.81	1452.01
424.02	1558.50
424.22	1484.78
424.42	1507.30
424.63	1591.27
424.83	1568.74
425.03	1435.63
425.24	1603.56
425.44	1499.11
425.64	1478.63
425.85	1538.02
426.05	1503.21
426.25	1468.39
426.46	1382.38
426.66	1583.08
426.86	1566.70
427.07	1581.03
427.27	1562.60
427.47	1828.84
427.68	1411.05
427.88	1574.89
428.08	1695.72
428.29	1542.12
428.49	1517.54
428.69	1697.77
428.90	1413.10
429.10	1570.79
429.30	1542.12
429.51	1538.02
429.71	1624.04
429.91	1486.83
430.12	1605.61
430.32	1757.16
430.52	1458.15
430.72	1574.89
430.93	1546.22
431.13	1626.09
431.33	1607.66
431.54	1599.46
431.74	1562.60
431.94	1472.49
432.15	1636.33
432.35	1546.22
432.55	1478.63
432.76	1542.12
432.96	1566.70
433.16	1538.02
433.36	1658.85
433.57	1488.87
433.77	1742.82
433.97	1595.37
434.18	1578.98
434.38	1593.32
434.58	1656.81
434.78	1642.47
434.99	1607.66
435.19	1683.43
435.39	1507.30
435.60	1597.42
435.80	1822.69
436.00	1585.13
436.20	1632.23
436.41	1624.04
436.61	1593.32
436.81	1513.45
437.02	1570.79
437.22	1589.22
437.42	1654.76
437.62	1626.09
437.83	1691.62
438.03	1609.70
438.23	1619.94
438.43	1609.70
438.64	1740.77
438.84	1564.65
439.04	1656.81
439.25	1816.55
439.45	1691.62
439.65	1660.90
439.85	1615.85
440.06	1591.27
440.26	1667.05
440.46	1644.52
440.66	1619.94
440.87	1665.00
441.07	1734.63
441.27	1826.79
441.47	1660.90
441.68	1710.05
441.88	1742.82
442.08	1601.51
442.28	1703.91
442.49	1705.96
442.69	1791.97
442.89	1673.19
443.09	1708.01
443.30	1607.66
443.50	1642.47
443.70	1685.48
443.90	1632.23
444.10	1714.15
444.31	1800.16
444.51	1660.90
444.71	1687.53
444.91	1669.09
445.12	1761.25
445.32	1820.64
445.52	1632.23
445.72	1544.17
445.93	1652.71
446.13	1691.62
446.33	1730.53
446.53	1853.41
446.73	1677.29
446.94	1558.50
447.14	1751.01
447.34	1689.57
447.54	1769.44
447.74	1714.15
447.95	1804.26
448.15	1705.96
448.35	1734.63
448.55	1687.53
448.76	1656.81
448.96	1710.05
449.16	1697.77
449.36	1783.78
449.56	1599.46
449.77	1681.38
449.97	1791.97
450.17	1613.80
450.37	1740.77
450.57	1779.68
450.78	1751.01
450.98	1650.66
451.18	1796.07
451.38	1636.33
451.58	1701.86
451.79	1603.56
451.99	1705.96
452.19	1773.54
452.39	1798.12
452.59	1720.29
452.79	1744.87
453.00	1751.01
453.20	1763.30
453.40	1701.86
453.60	1849.32
453.80	1814.50
454.01	1744.87
454.21	1673.19
454.41	1777.64
454.61	1841.12
454.81	1882.08
455.01	1757.16
455.22	1748.97
455.42	1884.13
455.62	1972.19
455.82	1714.15
456.02	1839.08
456.22	1810.40
456.43	1794.02
456.63	1730.53
456.83	1771.49
457.03	1841.12
457.23	1777.64
457.43	1771.49
457.64	1783.78
457.84	1839.08
458.04	1882.08
458.24	1748.97
458.44	1777.64
458.64	1748.97
458.84	1904.61
459.05	1757.16
459.25	1703.91
459.45	1910.75
459.65	1832.93
459.85	1794.02
460.05	1816.55
460.25	1873.89
460.46	1996.77
460.66	1816.55
460.86	1843.17
461.06	1920.99
461.26	1920.99
461.46	1920.99
461.66	1871.84
461.87	1951.71
462.07	1845.22
462.27	1966.05
462.47	1830.88
462.67	1900.52
462.87	1910.75
463.07	1816.55
463.27	1791.97
463.48	1794.02
463.68	1890.28
463.88	1912.80
464.08	2027.49
464.28	1902.56
464.48	1748.97
464.68	1871.84
464.88	1939.43
465.08	1968.10
465.29	1920.99
465.49	1781.73
465.69	1968.10
465.89	2052.06
466.09	1955.81
466.29	1984.48
466.49	1865.70
466.69	1927.14
466.89	1974.24
467.10	2084.83
467.30	2004.96
467.50	2117.60
467.70	1902.56
467.90	2035.68
468.10	1990.63
468.30	1906.66
468.50	1976.29
468.70	2060.26
468.90	1892.32
469.10	1996.77
469.31	2179.04
469.51	2076.64
469.71	2011.11
469.91	1990.63
470.11	2052.06
470.31	2070.50
470.51	2131.94
470.71	2023.39
470.91	2072.54
471.11	2060.26
471.31	2066.40
471.51	2123.74
471.71	2060.26
471.92	2088.93
472.12	2133.98
472.32	2146.27
472.52	2136.03
472.72	2058.21
472.92	2160.61
473.12	2121.70
473.32	2205.66
473.52	2260.96
473.72	2273.25
473.92	2156.51
474.12	2224.09
474.32	2138.08
474.52	2297.82
474.72	2187.23
474.92	2191.33
475.13	2340.83
475.33	2295.77
475.53	2351.07
475.73	2445.27
475.93	2349.02
476.13	2328.54
476.33	2346.97
476.53	2486.23
476.73	2291.68
476.93	2559.96
477.13	2510.81
477.33	2578.39
477.53	2592.73
477.73	2830.29
477.93	2498.52
478.13	2826.20
478.33	2811.86
478.53	2756.57
478.73	2875.35
478.93	2744.28
479.13	2858.96
479.33	2815.96
479.53	3004.37
479.73	3094.48
479.93	2875.35
480.13	3157.97
480.33	3188.69
480.53	3174.35
480.73	3297.23
480.93	3330.00
481.13	3266.51
481.34	3395.53
481.54	3479.50
481.74	3637.19
481.94	3565.51
482.14	3704.78
482.34	3790.79
482.54	3848.13
482.74	3909.57
482.94	4095.94
483.14	4220.86
483.34	4280.25
483.54	4353.98
483.74	4538.30
483.94	4462.52
484.14	4648.89
484.34	4769.72
484.54	4964.28
484.74	5244.85
484.94	5164.98
485.14	5377.97
485.34	5617.58
485.54	5711.78
485.74	5973.92
485.93	6203.30
486.13	6418.33
486.33	6397.85
486.53	6899.61
486.73	7016.34
486.93	7141.27
487.13	7380.88
487.33	7534.48
487.53	7815.05
487.73	8142.72
487.93	8646.52
488.13	9025.40
488.33	9123.70
488.53	9619.31
488.73	9807.72
488.93	10166.12
489.13	10780.51
489.33	11106.13
489.53	11564.88
489.73	12193.61
489.93	12668.73
490.13	12736.32
490.33	13893.42
490.53	13897.52
490.73	14571.30
490.93	14880.54
491.13	15855.37
491.33	16127.75
491.53	16787.20
491.73	17479.41
491.93	17919.73
492.12	18687.71
492.32	18845.41
492.52	19615.44
492.72	20504.26
492.92	20971.20
493.12	21010.11
493.32	21714.61
493.52	22388.39
493.72	22511.27
493.92	23195.29
494.12	23893.65
494.32	23864.98
494.52	24227.47
494.72	24823.43
494.92	25433.72
495.12	25435.77
495.31	25867.89
495.51	26033.78
495.71	26365.55
495.91	26383.98
496.11	26834.53
496.31	26775.14
496.51	26979.94
496.71	26631.79
496.91	27065.96
497.11	27098.72
497.31	26732.14
497.51	26816.10
497.71	26803.82
497.90	26781.29
498.10	26127.99
498.30	25636.47
498.50	25343.61
498.70	25308.80
498.90	24970.88
499.10	24805.00
499.30	24149.65
499.50	23651.99
499.70	23107.23
499.89	22468.27
500.09	21931.70
500.29	21423.80
500.49	21214.91
500.69	20330.19
500.89	19795.67
501.09	19168.99
501.29	18556.64
501.49	18138.86
501.69	17342.20
501.88	16918.27
502.08	16039.69
502.28	15568.66
502.48	15044.38
502.68	14366.50
502.88	13739.82
503.08	13291.32
503.28	12740.41
503.47	12255.04
503.67	11763.53
503.87	11056.98
504.07	10579.81
504.27	10057.57
504.47	9525.10
504.67	9201.52
504.87	8736.63
505.06	8406.91
505.26	7931.78
505.46	7380.88
505.66	7376.78
505.86	6870.94
506.06	6674.33
506.26	6215.59
506.45	6074.28
506.65	5681.07
506.85	5611.43
507.05	5330.86
507.25	5189.55
507.45	5142.45
507.65	4892.60
507.84	4818.87
508.04	4659.13
508.24	4370.37
508.44	4575.16
508.64	4247.49
508.84	4028.35
509.04	4149.18
509.23	4044.74
509.43	4186.05
509.63	3872.71
509.83	3917.76
510.03	3893.19
510.23	3706.82
510.42	3749.83
510.62	3733.45
510.82	3753.93
511.02	3880.90
511.22	3739.59
511.42	3700.68
511.61	3682.25
511.81	3864.52
512.01	3794.89
512.21	3643.34
512.41	3729.35
512.60	3637.19
512.80	3788.74
513.00	3665.86
513.20	3684.30
513.40	3792.84
513.60	3758.02
513.79	3751.88
513.99	3704.78
514.19	3796.93
514.39	3778.50
514.59	3784.65
514.78	3854.28
514.98	3837.89
515.18	3809.22
515.38	3825.61
515.58	3960.77
515.77	3839.94
515.97	3755.97
516.17	3813.32
516.37	4018.11
516.57	3854.28
516.76	3932.10
516.96	3921.86
517.16	3831.75
517.36	3899.33
517.56	3798.98
517.75	3971.01
517.95	3932.10
518.15	3979.20
518.35	3909.57
518.55	4106.18
518.74	3805.13
518.94	3928.00
519.14	3860.42
519.34	4087.75
519.53	4132.80
519.73	3958.72
519.93	4032.45
520.13	4106.18
520.32	4057.03
520.52	4057.03
520.72	4167.62
520.92	4054.98
521.12	4069.31
521.31	4259.78
521.51	4233.15
521.71	4057.03
521.91	4134.85
522.10	4155.33
522.30	4259.78
522.50	4100.03
522.70	4255.68
522.89	4132.80
523.09	4159.42
523.29	4245.44
523.49	4265.92
523.68	4335.55
523.88	4267.97
524.08	4331.45
524.28	4261.82
524.47	4239.30
524.67	4249.54
524.87	4149.18
525.07	4198.34
525.26	4270.01
525.46	4362.17
525.66	4335.55
525.86	4255.68
526.05	4403.13
526.25	4286.40
526.45	4151.23
526.64	4288.45
526.84	4114.37
527.04	4349.89
527.24	4310.97
527.43	4216.77
527.63	4380.61
527.83	4417.47
528.03	4407.23
528.22	4476.86
528.42	4368.32
528.62	4523.96
528.81	4321.21
529.01	4257.73
529.21	4255.68
529.41	4310.97
529.60	4331.45
529.80	4317.12
530.00	4380.61
530.19	4382.65
530.39	4327.36
530.59	4421.56
530.79	4319.17
530.98	4366.27
531.18	4337.60
531.38	4257.73
531.57	4511.68
531.77	4263.87
531.97	4384.70
532.16	4331.45
532.36	4405.18
532.56	4276.16
532.76	4390.84
532.95	4468.67
533.15	4450.24
533.35	4452.28
533.54	4454.33
533.74	4452.28
533.94	4460.48
534.13	4362.17
534.33	4442.04
534.53	4335.55
534.72	4442.04
534.92	4517.82
535.12	4431.80
535.31	4384.70
535.51	4251.58
535.71	4317.12
535.90	4599.74
536.10	4411.32
536.30	4491.20
536.49	4421.56
536.69	4532.15
536.89	4446.14
537.08	4253.63
537.28	4372.41
537.48	4487.10
537.67	4544.44
537.87	4343.74
538.07	4433.85
538.26	4130.75
538.46	4483.00
538.66	4286.40
538.85	4523.96
539.05	4700.09
539.25	4509.63
539.44	4550.59
539.64	4511.68
539.84	4624.31
540.03	4495.29
540.23	4532.15
540.42	4429.76
540.62	4808.63
540.82	4409.28
541.01	4515.77
541.21	4579.26
541.41	4462.52
541.60	4448.19
541.80	4521.92
542.00	4458.43
542.19	4513.72
542.39	4528.06
542.58	4440.00
542.78	4360.13
542.98	4394.94
543.17	4609.98
543.37	4472.76
543.57	4532.15
543.76	4601.79
543.96	4691.90
544.15	4681.66
544.35	4650.94
544.55	4626.36
544.74	4716.47
544.94	4818.87
545.13	4650.94
545.33	4673.46
545.53	4526.01
545.72	4552.63
545.92	4661.18
546.11	4720.57
546.31	4739.00
546.51	4591.55
546.70	4675.51
546.90	4675.51
547.09	4769.72
547.29	4636.60
547.49	4630.46
547.68	4749.24
547.88	4734.90
548.07	4798.39
548.27	4792.25
548.47	4792.25
548.66	4947.89
548.86	4882.36
549.05	4728.76
549.25	4679.61
549.45	4886.45
549.64	4990.90
549.84	4825.01
550.03	4833.21
550.23	4786.10
550.42	4939.70
550.62	4872.12
550.82	4673.46
551.01	4868.02
551.21	4810.68
551.40	4820.92
551.60	4921.27
551.79	4898.74
551.99	5044.15
552.19	4825.01
552.38	4865.97
552.58	4988.85
552.77	5015.48
552.97	5038.00
553.16	4999.09
553.36	5081.01
553.55	4966.32
553.75	4849.59
553.95	5074.87
554.14	5177.26
554.34	5019.57
554.53	5111.73
554.73	4951.99
554.92	5054.39
555.12	5150.64
555.31	5230.51
555.51	5074.87
555.70	5072.82
555.90	5142.45
556.09	4986.80
556.29	5195.70
556.49	5091.25
556.68	5015.48
556.88	5181.36
557.07	5187.50
557.27	5169.07
557.46	5072.82
557.66	5248.94
557.85	5124.02
558.05	5175.22
558.24	5164.98
558.44	5134.26
558.63	5230.51
558.83	5156.79
559.02	5111.73
559.22	5113.78
559.41	5246.90
559.61	5502.89
559.80	5390.25
560.00	5224.37
560.19	5126.07
560.39	5289.90
560.58	5367.73
560.78	5052.34
560.97	5351.34
561.17	5253.04
561.36	5298.10
561.56	5255.09
561.75	5404.59
561.95	5400.49
562.14	5412.78
562.34	5181.36
562.53	5203.89
562.73	5101.49
562.92	5228.46
563.12	5169.07
563.31	5312.43
563.51	5207.98
563.70	5304.24
563.90	5248.94
564.09	5261.23
564.29	5275.57
564.48	5212.08
564.68	5285.81
564.87	5332.91
565.07	5300.14
565.26	5101.49
565.46	5328.81
565.65	5398.45
565.85	5240.75
566.04	5310.38
566.24	5197.74
566.43	5386.16
566.63	5187.50
566.82	5224.37
567.01	5236.66
567.21	5255.09
567.40	5314.48
567.60	5181.36
567.79	5289.90
567.99	5347.25
568.18	5287.86
568.38	5294.00
568.57	5386.16
568.77	5226.42
568.96	5287.86
569.15	5289.90
569.35	5320.62
569.54	5476.27
569.74	5285.81
569.93	5224.37
570.13	5248.94
570.32	5253.04
570.52	5375.92
570.71	5380.01
570.90	5224.37
571.10	5302.19
571.29	5273.52
571.49	5210.03
571.68	5304.24
571.88	5380.01
572.07	5207.98
572.26	5480.36
572.46	5232.56
572.65	5408.69
572.85	5255.09
573.04	5150.64
573.24	5181.36
573.43	5410.73
573.62	5369.77
573.82	5271.47
574.01	5222.32
574.21	5285.81
574.40	5212.08
574.59	5281.71
574.79	5265.33
574.98	5222.32
575.18	5222.32
575.37	5302.19
575.56	5207.98
575.76	5189.55
575.95	5316.53
576.15	5191.60
576.34	5044.15
576.53	5183.41
576.73	5427.12
576.92	5388.21
577.12	5162.93
577.31	5324.72
577.50	5152.69
577.70	5230.51
577.89	5238.70
578.09	5547.95
578.28	5035.96
578.47	5265.33
578.67	5425.07
578.86	5394.35
579.06	5298.10
579.25	5244.85
579.44	5066.67
579.64	5291.95
579.83	5234.61
580.02	5271.47
580.22	5207.98
580.41	5406.64
580.61	5326.77
580.80	5416.88
580.99	5259.18
581.19	5390.25
581.38	5173.17
581.57	5377.97
581.77	5396.40
581.96	5287.86
582.15	5277.62
582.35	5388.21
582.54	5380.01
582.73	5394.35
582.93	5181.36
583.12	5248.94
583.32	5355.44
583.51	5277.62
583.70	5361.58
583.90	5298.10
584.09	5236.66
584.28	5259.18
584.48	5310.38
584.67	5392.30
584.86	5226.42
585.06	5400.49
585.25	5339.05
585.44	5138.35
585.64	5337.01
585.83	5334.96
586.02	5451.69
586.22	5218.22
586.41	5160.88
586.60	5226.42
586.80	5341.10
586.99	5412.78
587.18	5345.20
587.38	5472.17
587.57	5545.90
587.76	5300.14
587.96	5281.71
588.15	5638.06
588.34	5304.24
588.53	5560.24
588.73	5394.35
588.92	5406.64
589.11	5552.04
589.31	5388.21
589.50	5349.29
589.69	5416.88
589.89	5392.30
590.08	5420.97
590.27	5363.63
590.47	5457.84
590.66	5298.10
590.85	5463.98
591.04	5418.93
591.24	5412.78
591.43	5367.73
591.62	5279.66
591.82	5484.46
592.01	5369.77
592.20	5597.10
592.39	5644.20
592.59	5490.60
592.78	5357.49
592.97	5560.24
593.17	5433.26
593.36	5429.17
593.55	5425.07
593.74	5322.67
593.94	5640.11
594.13	5384.11
594.32	5531.56
594.52	5445.55
594.71	5500.84
594.90	5410.73
595.09	5605.29
595.29	5337.01
595.48	5470.12
595.67	5369.77
595.86	5318.57
596.06	5400.49
596.25	5564.33
596.44	5535.66
596.63	5240.75
596.83	5373.87
597.02	5453.74
597.21	5337.01
597.40	5527.47
597.60	5425.07
597.79	5541.80
597.98	5230.51
598.17	5400.49
598.37	5429.17
598.56	5394.35
598.75	5361.58
598.94	5423.02
599.14	5310.38
599.33	5429.17
599.52	5316.53
599.71	5351.34
599.91	5461.93
600.10	5298.10
600.29	5361.58
600.48	5439.40
600.68	5240.75
600.87	5351.34
601.06	5261.23
601.25	5220.27
601.44	5388.21
601.64	5257.14
601.83	5511.08
602.02	5244.85
602.21	5390.25
602.41	5109.68
602.60	5273.52
602.79	5162.93
602.98	5310.38
603.17	5275.57
603.37	5269.42
603.56	5382.06
603.75	5224.37
603.94	5314.48
604.13	5126.07
604.33	5185.46
604.52	5228.46
604.71	5242.80
604.90	5205.94
605.09	5314.48
605.29	5162.93
605.48	5277.62
605.67	5150.64
605.86	5195.70
606.05	5347.25
606.25	5160.88
606.44	5132.21
606.63	5140.40
606.82	5207.98
607.01	5083.06
607.20	5236.66
607.40	5216.18
607.59	5214.13
607.78	5136.31
607.97	5187.50
608.16	5146.55
608.36	5267.38
608.55	4999.09
608.74	5103.54
608.93	5242.80
609.12	5107.63
609.31	4931.51
609.51	5093.30
609.70	5420.97
609.89	5068.72
610.08	5093.30
610.27	5105.59
610.46	5179.31
610.66	5171.12
610.85	4931.51
611.04	5179.31
611.23	5033.91
611.42	5126.07
611.61	5042.10
611.80	4882.36
612.00	5052.34
612.19	5046.20
612.38	5074.87
612.57	5060.53
612.76	5070.77
612.95	5277.62
613.14	5142.45
613.34	4913.08
613.53	4984.76
613.72	5035.96
613.91	4947.89
614.10	5027.76
614.29	4964.28
614.48	5093.30
614.67	4997.04
614.87	5027.76
615.06	4962.23
615.25	5085.11
615.44	5115.83
615.63	4820.92
615.82	5085.11
616.01	4997.04
616.20	4837.30
616.40	5089.20
616.59	5031.86
616.78	4935.60
616.97	5130.16
617.16	4945.84
617.35	5093.30
617.54	5150.64
617.73	5033.91
617.92	4927.41
618.12	5033.91
618.31	4945.84
618.50	4976.56
618.69	5148.59
618.88	5074.87
619.07	4984.76
619.26	4984.76
619.45	5005.24
619.64	4796.34
619.83	4767.67
620.02	4890.55
620.22	4800.44
620.41	5076.91
620.60	4945.84
620.79	5130.16
620.98	4888.50
621.17	4835.25
621.36	5093.30
621.55	4956.08
621.74	5076.91
621.93	5046.20
622.12	5025.72
622.31	5111.73
622.51	5152.69
622.70	4937.65
622.89	5062.58
623.08	5085.11
623.27	4888.50
623.46	4974.52
623.65	5005.24
623.84	4845.49
624.03	4978.61
624.22	5023.67
624.41	4970.42
624.60	4880.31
624.79	4923.32
624.98	5121.97
625.17	4921.27
625.36	5048.24
625.55	4849.59
625.74	4958.13
625.94	5007.28
626.13	4896.69
626.32	5003.19
626.51	4986.80
626.70	5003.19
626.89	4884.41
627.08	5019.57
627.27	5007.28
627.46	5044.15
627.65	4954.04
627.84	4935.60
628.03	5132.21
628.22	4868.02
628.41	5101.49
628.60	4716.47
628.79	4872.12
628.98	4929.46
629.17	4935.60
629.36	4970.42
629.55	5033.91
629.74	5101.49
629.93	4913.08
630.12	5052.34
630.31	5126.07
630.50	4995.00
630.69	5095.35
630.88	5060.53
631.07	5015.48
631.26	4937.65
631.45	5007.28
631.64	5105.59
631.83	4982.71
632.02	5126.07
632.21	4970.42
632.40	5050.29
632.59	4894.65
632.78	4970.42
632.97	5078.96
633.16	5121.97
633.35	5062.58
633.54	5068.72
633.73	5001.14
633.92	5007.28
634.11	5001.14
634.30	5068.72
634.49	4988.85
634.68	5033.91
634.87	5111.73
635.06	5033.91
635.25	5085.11
635.44	5146.55
635.63	5027.76
635.82	5027.76
636.01	4835.25
636.20	5300.14
636.39	5087.15
636.58	5068.72
636.77	5136.31
636.96	5167.03
637.15	5212.08
637.34	5050.29
637.53	5201.84
637.72	5308.34
637.91	5212.08
638.09	5244.85
638.28	5083.06
638.47	5152.69
638.66	5361.58
638.85	5169.07
639.04	5265.33
639.23	5371.82
639.42	5269.42
639.61	5216.18
639.80	5253.04
639.99	5337.01
640.18	5369.77
640.37	5410.73
640.56	5232.56
640.75	5199.79
640.94	5328.81
641.13	5349.29
641.32	5326.77
641.50	5400.49
641.69	5310.38
641.88	5191.60
642.07	5289.90
642.26	5365.68
642.45	5363.63
642.64	5339.05
642.83	5322.67
643.02	5431.21
643.21	5486.51
643.40	5494.70
643.59	5359.53
643.77	5205.94
643.96	5420.97
644.15	5402.54
644.34	5408.69
644.53	5304.24
644.72	5398.45
644.91	5445.55
645.10	5466.03
645.29	5457.84
645.48	5570.48
645.67	5500.84
645.85	5468.08
646.04	5453.74
646.23	5590.95
646.42	5494.70
646.61	5433.26
646.80	5584.81
646.99	5482.41
647.18	5416.88
647.37	5531.56
647.55	5633.96
647.74	5623.72
647.93	5496.75
648.12	5517.23
648.31	5552.04
648.50	5373.87
648.69	5658.54
648.88	5472.17
649.06	5597.10
649.25	5359.53
649.44	5595.05
649.63	5441.45
649.82	5601.19
650.01	5562.28
650.20	5609.39
650.39	5511.08
650.57	5681.07
650.76	5654.44
650.95	5722.02
651.14	5535.66
651.33	5478.32
651.52	5554.09
651.70	5593.00
651.89	5304.24
652.08	5554.09
652.27	5713.83
652.46	5515.18
652.65	5443.50
652.84	5445.55
653.02	5693.35
653.21	5519.28
653.40	5470.12
653.59	5463.98
653.78	5568.43
653.97	5455.79
654.15	5654.44
654.34	5388.21
654.53	5316.53
654.72	5437.36
654.91	5382.06
655.10	5408.69
655.28	5541.80
655.47	5377.97
655.66	5355.44
655.85	5486.51
656.04	5173.17
656.23	5324.72
656.41	5078.96
656.60	5195.70
656.79	5291.95
656.98	5314.48
657.17	5289.90
657.35	5337.01
657.54	5167.03
657.73	5070.77
657.92	5240.75
658.11	5117.87
658.29	5064.63
658.48	5040.05
658.67	5025.72
658.86	5119.92
659.05	4958.13
659.23	4925.36
659.42	4878.26
659.61	5009.33
659.80	4925.36
659.99	4941.75
660.17	4982.71
660.36	4861.88
660.55	4689.85
660.74	4939.70
660.92	4855.73
661.11	4753.34
661.30	4714.42
661.49	4749.24
661.68	4759.48
661.86	4562.87
662.05	4769.72
662.24	4827.06
662.43	4650.94
662.61	4730.81
662.80	4810.68
662.99	4511.68
663.18	4620.22
663.37	4507.58
663.55	4583.35
663.74	4521.92
663.93	4409.28
664.12	4485.05
664.30	4511.68
664.49	4460.48
664.68	4378.56
664.87	4212.67
665.05	4274.11
665.24	4368.32
665.43	4313.02
665.62	4241.34
665.80	4358.08
665.99	4331.45
666.18	4282.30
666.37	4288.45
666.55	4200.38
666.74	4200.38
666.93	4222.91
667.11	4138.94
667.30	4085.70
667.49	4184.00
667.68	4118.47
667.86	4089.79
668.05	4093.89
668.24	4083.65
668.43	4118.47
668.61	4077.51
668.80	4042.69
668.99	4065.22
669.17	4040.64
669.36	4083.65
669.55	4089.79
669.74	4104.13
669.92	4089.79
670.11	4067.27
670.30	4153.28
670.48	4044.74
670.67	4048.83
670.86	3932.10
671.05	3966.92
671.23	3966.92
671.42	3811.27
671.61	3991.49
671.79	4087.75
671.98	3901.38
672.17	3977.16
672.35	4026.31
672.54	3993.54
672.73	3901.38
672.91	3981.25
673.10	3878.85
673.29	3798.98
673.48	3958.72
673.66	3999.68
673.85	3981.25
674.04	3841.99
674.22	4061.12
674.41	3860.42
674.60	3971.01
674.78	3880.90
674.97	3938.24
675.16	3958.72
675.34	3930.05
675.53	3909.57
675.72	4175.81
675.90	4118.47
676.09	3821.51
676.28	4044.74
676.46	3993.54
676.65	3872.71
676.84	4040.64
677.02	4067.27
677.21	4005.83
677.40	4095.94
677.58	4061.12
677.77	4061.12
677.95	4050.88
678.14	4048.83
678.33	3985.35
678.51	4001.73
678.70	4167.62
678.89	4100.03
679.07	4095.94
679.26	4020.16
679.45	4179.90
679.63	4200.38
679.82	4298.69
680.01	4220.86
680.19	4059.07
680.38	4306.88
680.56	4360.13
680.75	4206.53
680.94	4163.52
681.12	4145.09
681.31	4306.88
681.50	4270.01
681.68	4286.40
681.87	4286.40
682.05	4292.54
682.24	4452.28
682.43	4384.70
682.61	4483.00
682.80	4358.08
682.98	4478.91
683.17	4499.39
683.36	4630.46
683.54	4542.39
683.73	4503.48
683.91	4716.47
684.10	4624.31
684.29	4759.48
684.47	4689.85
684.66	4712.38
684.84	4634.55
685.03	4667.32
685.22	4775.86
685.40	4835.25
685.59	4880.31
685.77	5148.59
685.96	4982.71
686.15	4951.99
686.33	4859.83
686.52	4925.36
686.70	5031.86
686.89	5107.63
687.07	4958.13
687.26	5107.63
687.45	5087.15
687.63	5058.48
687.82	5181.36
688.00	5279.66
688.19	5248.94
688.37	5339.05
688.56	5277.62
688.75	5449.64
688.93	5611.43
689.12	5414.83
689.30	5429.17
689.49	5300.14
689.67	5525.42
689.86	5584.81
690.04	5552.04
690.23	5504.94
690.42	5805.99
690.60	5734.31
690.79	5943.21
690.97	5834.66
691.16	5627.82
691.34	5789.61
691.53	5746.60
691.71	5887.91
691.90	6006.69
692.08	6092.71
692.27	6059.94
692.45	5873.57
692.64	6109.09
692.83	6229.92
693.01	6154.15
693.20	6270.88
693.38	6133.67
693.57	6262.69
693.75	6123.43
693.94	6166.43
694.12	6379.42
694.31	6324.13
694.49	6414.24
694.68	6502.30
694.86	6393.76
695.05	6360.99
695.23	6471.58
695.42	6498.20
695.60	6569.88
695.79	6584.22
695.97	6645.66
696.16	6682.52
696.34	6481.82
696.53	6694.81
696.71	6692.76
696.90	6797.21
697.08	6805.40
697.27	6834.07
697.45	6858.65
697.64	6838.17
697.82	6909.85
698.01	6899.61
698.19	7102.36
698.38	6852.50
698.56	7016.34
698.75	6977.43
698.93	6973.33
699.12	7196.56
699.30	7036.82
699.49	7155.60
699.67	7090.07
699.86	7229.33
700.04	7292.82
700.22	7004.05
700.41	7286.67
700.59	7329.68
700.78	7126.93
700.96	7448.46
701.15	7116.69
701.33	7266.19
701.52	7206.80
701.70	7499.66
701.89	7352.21
702.07	7368.59
702.26	7501.71
702.44	7511.95
702.62	7546.76
702.81	7401.36
702.99	7403.41
703.18	7550.86
703.36	7483.28
703.55	7729.03
703.73	7694.22
703.92	7708.55
704.10	7514.00
704.28	7565.20
704.47	7610.25
704.65	7511.95
704.84	7696.27
705.02	7669.64
705.21	7776.14
705.39	7657.36
705.57	7608.20
705.76	7665.55
705.94	7784.33
706.13	7735.18
706.31	7655.31
706.50	7688.07
706.68	7669.64
706.86	7819.14
707.05	7817.10
707.23	7735.18
707.42	7980.93
707.60	7640.97
707.78	7952.26
707.97	7919.50
708.15	7931.78
708.34	7896.97
708.52	7919.50
708.70	7839.62
708.89	7782.28
709.07	8081.28
709.26	7841.67
709.44	8109.96
709.62	7972.74
709.81	7968.65
709.99	7987.08
710.18	8087.43
710.36	7874.44
710.54	7962.50
710.73	8103.81
710.91	7948.17
711.10	7964.55
711.28	8013.70
711.46	7950.21
711.65	7958.41
711.83	8089.48
712.01	8157.06
712.20	8152.96
712.38	8058.76
712.57	8208.26
712.75	8089.48
712.93	8058.76
713.12	8112.00
713.30	7999.37
713.48	8138.63
713.67	8146.82
713.85	8150.92
714.03	8234.88
714.22	8204.16
714.40	8060.80
714.58	8032.13
714.77	8019.85
714.95	8212.35
715.14	7970.69
715.32	8122.24
715.50	8206.21
715.69	8056.71
715.87	8173.44
716.05	8054.66
716.24	8034.18
716.42	8028.04
716.60	8071.04
716.79	8202.11
716.97	8359.81
717.15	8005.51
717.34	8042.37
717.52	7978.89
717.70	8038.28
717.89	8069.00
718.07	7956.36
718.25	7950.21
718.44	8198.02
718.62	8097.67
718.80	8083.33
718.98	7980.93
719.17	7954.31
719.35	8097.67
719.53	7985.03
719.72	7825.29
719.90	8023.94
720.08	8040.33
720.27	7915.40
720.45	7960.45
720.63	8091.52
720.82	8206.21
721.00	7989.13
721.18	8009.61
721.36	8085.38
721.55	8193.92
721.73	7917.45
721.91	7917.45
722.10	7804.81
722.28	7942.02
722.46	7810.95
722.64	7851.91
722.83	7837.58
723.01	7939.97
723.19	7874.44
723.38	7980.93
723.56	7829.38
723.74	7903.11
723.92	7849.86
724.11	7905.16
724.29	7813.00
724.47	8114.05
724.65	8048.52
724.84	7815.05
725.02	7989.13
725.20	7868.30
725.39	7942.02
725.57	8023.94
725.75	7851.91
725.93	7933.83
726.12	7868.30
726.30	7903.11
726.48	7677.83
726.66	7724.94
726.85	7675.79
727.03	7731.08
727.21	7925.64
727.39	7810.95
727.58	7939.97
727.76	7722.89
727.94	7831.43
728.12	7751.56
728.30	7786.38
728.49	7673.74
728.67	7808.90
728.85	7669.64
729.03	7767.95
729.22	7974.79
729.40	7616.40
729.58	7610.25
729.76	7745.42
729.95	7813.00
730.13	7759.75
730.31	7677.83
730.49	7618.44
730.67	7522.19
730.86	7651.21
731.04	7520.14
731.22	7327.63
731.40	7739.27
731.58	7700.36
731.77	7649.16
731.95	7657.36
732.13	7606.16
732.31	7534.48
732.50	7661.45
732.68	7593.87
732.86	7559.05
733.04	7462.80
733.22	7495.57
733.40	7346.06
733.59	7565.20
733.77	7350.16
733.95	7526.29
734.13	7518.09
734.31	7423.89
734.50	7593.87
734.68	7536.52
734.86	7341.97
735.04	7274.38
735.22	7454.61
735.41	7249.81
735.59	7210.90
735.77	7401.36
735.95	7462.80
736.13	7315.34
736.31	7331.73
736.50	7264.15
736.68	7368.59
736.86	7411.60
737.04	7266.19
737.22	7188.37
737.40	7079.83
737.59	7378.83
737.77	7217.04
737.95	7237.52
738.13	7088.02
738.31	7210.90
738.49	7040.92
738.67	7057.30
738.86	7239.57
739.04	7077.78
739.22	7096.21
739.40	7081.88
739.58	7292.82
739.76	6967.19
739.94	7161.75
740.13	7255.95
740.31	7010.20
740.49	6903.70
740.67	6975.38
740.85	7081.88
741.03	6813.59
741.21	7010.20
741.39	6891.41
741.58	6776.73
741.76	6959.00
741.94	6891.41
742.12	6838.17
742.30	6959.00
742.48	6901.65
742.66	6936.47
742.84	6647.71
743.03	6629.27
743.21	6705.05
743.39	6707.10
743.57	6813.59
743.75	6684.57
743.93	6645.66
744.11	6664.09
744.29	6709.15
744.47	6594.46
744.65	6717.34
744.84	6567.84
745.02	6524.83
745.20	6533.02
745.38	6602.65
745.56	6467.49
745.74	6416.29
745.92	6360.99
746.10	6662.04
746.28	6436.77
746.46	6444.96
746.64	6330.27
746.82	6522.78
747.01	6283.17
747.19	6309.79
747.37	6387.61
747.55	6385.57
747.73	6442.91
747.91	6174.63
748.09	6279.07
748.27	6248.35
748.45	6301.60
748.63	6363.04
748.81	6160.29
748.99	6168.48
749.17	6406.05
749.35	6229.92
749.53	6057.89
749.72	6098.85
749.90	5939.11
750.08	6285.22
750.26	6053.80
750.44	6164.39
750.62	6264.74
750.80	6090.66
750.98	6158.24
751.16	6010.79
751.34	6055.84
751.52	6016.93
751.70	5994.40
751.88	6172.58
752.06	6150.05
752.24	5975.97
752.42	6143.91
752.60	5994.40
752.78	5973.92
752.96	5754.79
753.14	5990.31
753.32	5887.91
753.50	5984.16
753.68	6131.62
753.86	5746.60
754.04	5746.60
754.22	5765.03
754.40	6008.74
754.58	5746.60
754.76	5840.81
754.94	5775.27
755.12	6098.85
755.30	5699.50
755.48	5832.62
755.66	5744.55
755.84	5760.94
756.02	5799.85
756.20	5558.19
756.38	5779.37
756.56	5832.62
756.74	5707.69
756.92	5789.61
757.10	5719.98
757.28	5719.98
757.46	5590.95
757.64	5805.99
757.82	5617.58
758.00	5654.44
758.18	5662.63
758.36	5767.08
758.54	5687.21
758.72	5775.27
758.90	5584.81
759.08	5629.87
759.26	5756.84
759.44	5621.67
759.62	5646.25
759.80	5621.67
759.98	5603.24
760.16	5629.87
760.34	5625.77
760.52	5627.82
760.70	5609.39
760.88	5474.22
761.06	5476.27
761.24	5576.62
761.42	5494.70
761.60	5660.59
761.77	5492.65
761.95	5650.35
762.13	5621.67
762.31	5373.87
762.49	5439.40
762.67	5566.38
762.85	5355.44
763.03	5351.34
763.21	5324.72
763.39	5216.18
763.57	5416.88
763.75	5351.34
763.93	5525.42
764.11	5332.91
764.29	5267.38
764.46	5367.73
764.64	5271.47
764.82	5216.18
765.00	5359.53
765.18	5289.90
765.36	5306.29
765.54	5179.31
765.72	5240.75
765.90	5214.13
766.08	5207.98
766.26	5205.94
766.44	5179.31
766.61	4956.08
766.79	5242.80
766.97	5105.59
767.15	5150.64
767.33	5146.55
767.51	5197.74
767.69	5187.50
767.87	5050.29
768.05	4958.13
768.22	5197.74
768.40	5072.82
768.58	5177.26
768.76	4958.13
768.94	5031.86
769.12	4911.03
769.30	5115.83
769.48	5072.82
769.66	5013.43
769.83	4839.35
770.01	4870.07
770.19	4978.61
770.37	4911.03
770.55	4687.80
770.73	4966.32
770.91	4718.52
771.09	4786.10
771.26	4806.58
771.44	4997.04
771.62	4831.16
771.80	4812.73
771.98	4714.42
772.16	4743.10
772.34	4646.84
772.51	4726.71
772.69	4747.19
772.87	4683.70
773.05	4552.63
773.23	4618.17
773.41	4605.88
773.58	4663.22
773.76	4618.17
773.94	4519.87
774.12	4695.99
774.30	4663.22
774.48	4712.38
774.65	4274.11
774.83	4526.01
775.01	4474.81
775.19	4552.63
775.37	4661.18
775.55	4427.71
775.72	4591.55
775.90	4687.80
776.08	4446.14
776.26	4622.27
776.44	4548.54
776.61	4374.46
776.79	4554.68
776.97	4358.08
777.15	4503.48
777.33	4364.22
777.51	4310.97
777.68	4343.74
777.86	4372.41
778.04	4335.55
778.22	4386.75
778.40	4396.99
778.57	4108.23
778.75	4270.01
778.93	4270.01
779.11	4319.17
779.29	4284.35
779.46	4237.25
779.64	4089.79
779.82	4331.45
780.00	3995.59
780.17	4196.29
780.35	4079.55
780.53	4165.57
780.71	4267.97
780.89	4122.56
781.06	4022.21
781.24	4179.90
781.42	4165.57
781.60	4081.60
781.77	4034.50
781.95	4188.10
782.13	4155.33
782.31	4009.92
782.48	4136.90
782.66	4024.26
782.84	4192.19
783.02	3999.68
783.19	4145.09
783.37	4220.86
783.55	4085.70
783.73	4022.21
783.90	4165.57
784.08	4165.57
784.26	3987.40
784.44	3872.71
784.61	4003.78
784.79	3999.68
784.97	3942.34
785.15	4007.87
785.32	4020.16
785.50	4018.11
785.68	4136.90
785.86	3968.96
786.03	3862.47
786.21	4003.78
786.39	4071.36
786.57	3780.55
786.74	3889.09
786.92	3880.90
787.10	3891.14
787.27	3667.91
787.45	3915.72
787.63	3948.48
787.81	3983.30
787.98	3770.31
788.16	3866.56
788.34	4016.07
788.51	3889.09
788.69	3747.78
788.87	3784.65
789.04	3950.53
789.22	3895.24
789.40	3719.11
789.58	3774.41
789.75	3753.93
789.93	3839.94
790.11	3766.21
790.28	3753.93
790.46	3930.05
790.64	3788.74
790.81	3772.36
790.99	3784.65
791.17	3850.18
791.34	3768.26
791.52	3692.49
791.70	3737.54
791.87	3743.69
792.05	3774.41
792.23	3635.14
792.40	3655.62
792.58	3581.90
792.76	3585.99
792.93	3768.26
793.11	3712.97
793.29	3739.59
793.46	3725.26
793.64	3657.67
793.82	3643.34
793.99	3633.10
794.17	3565.51
794.35	3610.57
794.52	3561.42
794.70	3667.91
794.88	3846.09
795.05	3577.80
795.23	3577.80
795.41	3590.09
795.58	3418.06
795.76	3563.47
795.94	3499.98
796.11	3610.57
796.29	3608.52
796.46	3608.52
796.64	3581.90
796.82	3512.27
796.99	3452.88
797.17	3401.68
797.35	3471.31
797.52	3514.31
797.70	3575.75
797.87	3708.87
798.05	3700.68
798.23	3422.16
798.40	3581.90
798.58	3432.40
798.76	3407.82
798.93	3438.54
799.11	3502.03
799.28	3434.44
799.46	3438.54
799.64	3434.44
799.81	3512.27
799.99	3497.93
800.16	3330.00
800.34	3330.00
800.52	3368.91
800.69	3243.98
800.87	3327.95
801.04	3254.22
801.22	3319.76
801.39	3315.66
801.57	3370.96
801.75	3293.13
801.92	3395.53
802.10	3327.95
802.27	3280.85
802.45	3368.91
802.63	3432.40
802.80	3424.20
802.98	3241.93
803.15	3276.75
803.33	3340.24
803.50	3420.11
803.68	3280.85
803.86	3373.00
804.03	3352.52
804.21	3434.44
804.38	3297.23
804.56	3569.61
804.73	3469.26
804.91	3266.51
805.08	3291.09
805.26	3239.89
805.44	3270.61
805.61	3260.37
805.79	3157.97
805.96	3203.02
806.14	3221.45
806.31	3180.50
806.49	3338.19
806.66	3360.72
806.84	3252.17
807.01	3330.00
807.19	3215.31
807.36	3250.13
807.54	3229.65
807.71	3067.86
807.89	3194.83
808.07	3280.85
808.24	3184.59
808.42	3243.98
808.59	3248.08
808.77	3104.72
808.94	3332.05
809.12	3200.98
809.29	3141.58
809.47	3192.78
809.64	3141.58
809.82	2992.08
809.99	3063.76
810.17	3233.74
810.34	3160.02
810.52	3055.57
810.69	3153.87
810.87	3076.05
811.04	3063.76
811.22	3082.19
811.39	3155.92
811.57	3078.10
811.74	3119.06
811.92	3074.00
812.09	3330.00
812.27	3188.69
812.44	3112.91
812.62	3125.20
812.79	3129.30
812.97	3164.11
813.14	3024.85
813.31	2928.60
813.49	3028.95
813.66	2955.22
813.84	3012.56
814.01	3039.19
814.19	3014.61
814.36	3012.56
814.54	2944.98
814.71	3004.37
814.89	3043.28
815.06	3024.85
815.24	3084.24
815.41	3037.14
815.58	3080.14
815.76	2963.41
815.93	3065.81
816.11	2981.84
816.28	2803.67
816.46	3020.75
816.63	2901.97
816.81	2832.34
816.98	2828.24
817.15	2955.22
817.33	3069.91
817.50	2916.31
817.68	2818.00
817.85	2961.36
818.03	2861.01
818.20	2889.68
818.37	2920.40
818.55	2934.74
818.72	2938.84
818.90	2863.06
819.07	2844.63
819.25	2942.93
819.42	2813.91
819.59	2801.62
819.77	2705.37
819.94	2889.68
820.12	2977.75
820.29	3006.42
820.46	2803.67
820.64	2750.42
820.81	2818.00
820.99	2801.62
821.16	2764.76
821.33	2856.92
821.51	2947.03
821.68	2779.09
821.86	2990.03
822.03	2828.24
822.20	2871.25
822.38	2824.15
822.55	2875.35
822.73	2721.75
822.90	2922.45
823.07	2668.50
823.25	2813.91
823.42	2705.37
823.59	2795.48
823.77	2723.80
823.94	2863.06
824.12	2734.04
824.29	2787.29
824.46	2609.11
824.64	2734.04
824.81	2609.11
824.98	2664.41
825.16	2813.91
825.33	2627.54
825.50	2611.16
825.68	2824.15
825.85	2684.89
826.03	2709.46
826.20	2541.53
826.37	2736.09
826.55	2598.87
826.72	2619.35
826.89	2805.72
827.07	2643.93
827.24	2482.14
827.41	2619.35
827.59	2611.16
827.76	2666.46
827.93	2666.46
828.11	2670.55
828.28	2562.01
828.45	2672.60
828.63	2574.30
828.80	2605.02
828.97	2523.10
829.15	2619.35
829.32	2516.95
829.49	2705.37
829.67	2580.44
829.84	2549.72
830.01	2539.48
830.18	2584.54
830.36	2553.82
830.53	2584.54
830.70	2566.10
830.88	2447.32
831.05	2596.82
831.22	2631.64
831.40	2473.95
831.57	2471.90
831.74	2572.25
831.91	2592.73
832.09	2582.49
832.26	2455.51
832.43	2502.62
832.61	2500.57
832.78	2490.33
832.95	2504.67
833.13	2529.24
833.30	2529.24
833.47	2605.02
833.64	2484.19
833.82	2379.74
833.99	2389.98
834.16	2467.80
834.33	2455.51
834.51	2488.28
834.68	2527.19
834.85	2334.68
835.03	2432.99
835.20	2330.59
835.37	2369.50
835.54	2484.19
835.72	2469.85
835.89	2357.21
836.06	2484.19
836.23	2377.69
836.41	2263.01
836.58	2312.16
836.75	2377.69
836.92	2410.46
837.10	2320.35
837.27	2308.06
837.44	2369.50
837.61	2250.72
837.78	2408.41
837.96	2430.94
838.13	2457.56
838.30	2205.66
838.47	2394.08
838.65	2156.51
838.82	2277.34
838.99	2258.91
839.16	2242.53
839.34	2328.54
839.51	2312.16
839.68	2263.01
839.85	2334.68
840.02	2322.40
840.20	2226.14
840.37	2287.58
840.54	2179.04
840.71	2398.17
840.88	2273.25
841.06	2230.24
841.23	2377.69
841.40	2301.92
841.57	2203.61
841.74	2129.89
841.92	2346.97
842.09	2250.72
842.26	2189.28
842.43	2076.64
842.60	2164.70
842.78	2070.50
842.95	2205.66
843.12	2213.85
843.29	2168.80
843.46	2217.95
843.64	2234.33
843.81	2099.17
843.98	2381.79
844.15	2324.44
844.32	2084.83
844.49	2070.50
844.67	2179.04
844.84	2115.55
845.01	2058.21
845.18	2103.26
845.35	2097.12
845.52	2074.59
845.70	2217.95
845.87	2154.46
846.04	2193.37
846.21	1986.53
846.38	2193.37
846.55	2037.73
846.72	2047.97
846.90	2209.76
847.07	2113.50
847.24	2199.52
847.41	2133.98
847.58	2000.87
847.75	2131.94
847.92	2015.20
848.10	2144.22
848.27	1970.15
848.44	2105.31
848.61	2076.64
848.78	2144.22
848.95	1939.43
849.12	2099.17
849.29	2088.93
849.47	2093.02
849.64	2007.01
849.81	2074.59
849.98	2095.07
850.15	2086.88
850.32	2136.03
850.49	2019.30
850.66	1865.70
850.84	2013.15
851.01	1935.33
851.18	1994.72
851.35	1959.91
851.52	1964.00
851.69	1974.24
851.86	2052.06
852.03	1927.14
852.20	1984.48
852.37	1976.29
852.54	1953.76
852.72	2088.93
852.89	2125.79
853.06	2045.92
853.23	1970.15
853.40	1918.95
853.57	1857.51
853.74	2037.73
853.91	1964.00
854.08	1849.32
854.25	1871.84
854.42	1998.82
854.59	1980.39
854.76	1972.19
854.94	1912.80
855.11	1951.71
855.28	1814.50
855.45	1918.95
855.62	1941.47
855.79	1943.52
855.96	1845.22
856.13	1777.64
856.30	1773.54
856.47	1953.76
856.64	1910.75
856.81	1794.02
856.98	1779.68
857.15	1886.18
857.32	1759.21
857.49	1834.98
857.66	1775.59
857.83	1853.41
858.00	1832.93
858.17	1925.09
858.35	1822.69
858.52	1908.71
858.69	1798.12
858.86	1726.44
859.03	1822.69
859.20	1900.52
859.37	1806.31
859.54	1877.99
859.71	1880.04
859.88	1759.21
860.05	1855.46
860.22	1779.68
860.39	1818.60
860.56	1771.49
860.73	1884.13
860.90	1791.97
861.07	1873.89
861.24	1800.16
861.41	1904.61
861.58	1773.54
861.75	1648.61
861.92	1769.44
862.09	1826.79
862.26	1708.01
862.43	1806.31
862.60	1699.81
862.77	1976.29
862.94	1656.81
863.11	1816.55
863.28	1822.69
863.45	1794.02
863.62	1648.61
863.79	1621.99
863.96	1851.36
864.13	1830.88
864.30	1667.05
864.46	1644.52
864.63	1742.82
864.80	1783.78
864.97	1849.32
865.14	1583.08
865.31	1603.56
865.48	1775.59
865.65	1751.01
865.82	1785.83
865.99	1734.63
866.16	1705.96
866.33	1740.77
866.50	1683.43
866.67	1884.13
866.84	1652.71
867.01	1843.17
867.18	1841.12
867.35	1865.70
867.52	1863.65
867.69	1703.91
867.85	1535.98
868.02	1755.11
868.19	1767.40
868.36	1673.19
868.53	1685.48
868.70	1652.71
868.87	1697.77
869.04	1613.80
869.21	1660.90
869.38	1689.57
869.55	1806.31
869.72	1742.82
869.89	1595.37
870.05	1615.85
870.22	1632.23
870.39	1597.42
870.56	1769.44
870.73	1665.00
870.90	1669.09
871.07	1578.98
871.24	1724.39
871.41	1677.29
871.58	1691.62
871.74	1550.31
871.91	1589.22
872.08	1636.33
872.25	1511.40
872.42	1617.90
872.59	1576.94
872.76	1714.15
872.93	1742.82
873.10	1638.38
873.26	1638.38
873.43	1624.04
873.60	1689.57
873.77	1462.25
873.94	1589.22
874.11	1775.59
874.28	1746.92
874.45	1714.15
874.61	1552.36
874.78	1611.75
874.95	1613.80
875.12	1632.23
875.29	1613.80
875.46	1568.74
875.63	1683.43
875.79	1634.28
875.96	1550.31
876.13	1570.79
876.30	1482.73
876.47	1652.71
876.64	1624.04
876.80	1527.78
876.97	1521.64
877.14	1624.04
877.31	1595.37
877.48	1587.18
877.65	1708.01
877.81	1644.52
877.98	1507.30
878.15	1665.00
878.32	1576.94
878.49	1646.57
878.66	1660.90
878.82	1646.57
878.99	1679.33
879.16	1476.59
879.33	1538.02
879.50	1599.46
879.67	1634.28
879.83	1599.46
880.00	1503.21
880.17	1568.74
880.34	1583.08
880.51	1486.83
880.67	1552.36
880.84	1589.22
881.01	1599.46
881.18	1640.42
881.35	1525.74
881.51	1556.46
881.68	1705.96
881.85	1660.90
882.02	1552.36
882.18	1556.46
882.35	1562.60
882.52	1591.27
882.69	1460.20
882.86	1609.70
883.02	1523.69
883.19	1574.89
883.36	1665.00
883.53	1421.29
883.69	1517.54
883.86	1447.91
884.03	1605.61
884.20	1509.35
884.36	1593.32
884.53	1652.71
884.70	1513.45
884.87	1488.87
885.04	1611.75
885.20	1658.85
885.37	1525.74
885.54	1574.89
885.71	1550.31
885.87	1490.92
886.04	1490.92
886.21	1624.04
886.38	1560.55
886.54	1591.27
886.71	1562.60
886.88	1552.36
>>>>>End Processed Spectral Data<<<<<
