SpectraSuite Data File
++++++++++++++++++++++++++++++++++++
Date: Fri May 01 10:27:00 EST 2015
User: ocean
Dark Spectrum Present: No
Reference Spectrum Present: No
Number of Sampled Component Spectra: 1
Spectrometers: USB4E02642
Integration Time (usec): 150000 (USB4E02642)
Spectra Averaged: 1 (USB4E02642)
Boxcar Smoothing: 0 (USB4E02642)
Correct for Electrical Dark: No (USB4E02642)
Strobe/Lamp Enabled: No (USB4E02642)
Correct for Detector Non-linearity: No (USB4E02642)
Correct for Stray Light: No (USB4E02642)
Number of Pixels in Processed Spectrum: 3648
>>>>>Begin Processed Spectral Data<<<<<
179.22	978.93
179.43	978.93
179.65	978.93
179.86	960.50
180.08	1050.61
180.29	1388.52
180.51	1230.83
180.72	1337.32
180.94	1234.93
181.15	1230.83
181.37	1374.19
181.58	1212.40
181.80	1374.19
182.01	1226.73
182.23	1300.46
182.44	1382.38
182.66	1224.69
182.87	1333.23
183.09	1234.93
183.30	1239.02
183.52	1284.08
183.73	1214.45
183.95	1355.76
184.16	1253.36
184.38	1296.36
184.59	1265.64
184.81	1269.74
185.02	1255.40
185.24	1255.40
185.45	1282.03
185.67	1300.46
185.88	1400.81
186.10	1187.82
186.31	1241.07
186.53	1282.03
186.74	1226.73
186.96	1314.80
187.17	1214.45
187.39	1169.39
187.60	1279.98
187.81	1429.48
188.03	1255.40
188.24	1236.97
188.46	1224.69
188.67	1388.52
188.89	1236.97
189.10	1404.91
189.32	1335.28
189.53	1310.70
189.75	1304.56
189.96	1322.99
190.18	1253.36
190.39	1239.02
190.61	1230.83
190.82	1198.06
191.04	1327.08
191.25	1419.24
191.46	1353.71
191.68	1224.69
191.89	1322.99
192.11	1290.22
192.32	1241.07
192.54	1257.45
192.75	1243.12
192.97	1329.13
193.18	1245.16
193.40	1374.19
193.61	1363.95
193.83	1433.58
194.04	1329.13
194.25	1402.86
194.47	1312.75
194.68	1253.36
194.90	1314.80
195.11	1292.27
195.33	1312.75
195.54	1374.19
195.76	1339.37
195.97	1271.79
196.18	1353.71
196.40	1347.56
196.61	1271.79
196.83	1388.52
197.04	1218.54
197.26	1419.24
197.47	1241.07
197.69	1177.58
197.90	1382.38
198.11	1241.07
198.33	1241.07
198.54	1265.64
198.76	1345.52
198.97	1306.60
199.19	1253.36
199.40	1349.61
199.61	1228.78
199.83	1239.02
200.04	1247.21
200.26	1239.02
200.47	1304.56
200.69	1249.26
200.90	1325.04
201.11	1228.78
201.33	1216.49
201.54	1417.19
201.76	1296.36
201.97	1247.21
202.19	1370.09
202.40	1351.66
202.61	1275.88
202.83	1273.84
203.04	1353.71
203.26	1284.08
203.47	1292.27
203.68	1394.67
203.90	1269.74
204.11	1329.13
204.33	1193.97
204.54	1331.18
204.75	1322.99
204.97	1206.25
205.18	1181.68
205.40	1183.73
205.61	1263.60
205.83	1474.54
206.04	1220.59
206.25	1366.00
206.47	1333.23
206.68	1411.05
206.90	1198.06
207.11	1230.83
207.32	1243.12
207.54	1325.04
207.75	1273.84
207.97	1253.36
208.18	1239.02
208.39	1267.69
208.61	1302.51
208.82	1374.19
209.03	1368.04
209.25	1447.91
209.46	1337.32
209.68	1275.88
209.89	1251.31
210.10	1320.94
210.32	1296.36
210.53	1234.93
210.75	1374.19
210.96	1261.55
211.17	1269.74
211.39	1296.36
211.60	1312.75
211.82	1243.12
212.03	1230.83
212.24	1325.04
212.46	1302.51
212.67	1300.46
212.88	1236.97
213.10	1312.75
213.31	1288.17
213.53	1378.28
213.74	1279.98
213.95	1329.13
214.17	1273.84
214.38	1353.71
214.59	1255.40
214.81	1400.81
215.02	1288.17
215.23	1310.70
215.45	1153.01
215.66	1236.97
215.88	1290.22
216.09	1193.97
216.30	1366.00
216.52	1279.98
216.73	1138.67
216.94	1333.23
217.16	1380.33
217.37	1404.91
217.58	1249.26
217.80	1435.63
218.01	1312.75
218.22	1224.69
218.44	1341.42
218.65	1372.14
218.87	1245.16
219.08	1333.23
219.29	1333.23
219.51	1288.17
219.72	1259.50
219.93	1259.50
220.15	1409.00
220.36	1220.59
220.57	1386.47
220.79	1202.16
221.00	1185.77
221.21	1343.47
221.43	1282.03
221.64	1214.45
221.85	1300.46
222.07	1298.41
222.28	1318.89
222.49	1308.65
222.71	1241.07
222.92	1183.73
223.13	1171.44
223.35	1257.45
223.56	1294.32
223.77	1273.84
223.99	1304.56
224.20	1296.36
224.41	1232.88
224.63	1396.71
224.84	1306.60
225.05	1398.76
225.27	1310.70
225.48	1417.19
225.69	1222.64
225.91	1251.31
226.12	1257.45
226.33	1417.19
226.55	1247.21
226.76	1267.69
226.97	1320.94
227.19	1275.88
227.40	1308.65
227.61	1294.32
227.82	1232.88
228.04	1224.69
228.25	1236.97
228.46	1220.59
228.68	1288.17
228.89	1316.84
229.10	1263.60
229.32	1259.50
229.53	1251.31
229.74	1341.42
229.96	1368.04
230.17	1329.13
230.38	1427.43
230.59	1251.31
230.81	1243.12
231.02	1193.97
231.23	1155.05
231.45	1390.57
231.66	1284.08
231.87	1343.47
232.09	1368.04
232.30	1294.32
232.51	1388.52
232.72	1255.40
232.94	1193.97
233.15	1363.95
233.36	1234.93
233.58	1253.36
233.79	1249.26
234.00	1325.04
234.21	1306.60
234.43	1282.03
234.64	1232.88
234.85	1202.16
235.07	1275.88
235.28	1300.46
235.49	1208.30
235.70	1454.06
235.92	1333.23
236.13	1290.22
236.34	1415.15
236.56	1169.39
236.77	1228.78
236.98	1275.88
237.19	1275.88
237.41	1329.13
237.62	1300.46
237.83	1398.76
238.04	1284.08
238.26	1335.28
238.47	1386.47
238.68	1331.18
238.89	1284.08
239.11	1304.56
239.32	1337.32
239.53	1368.04
239.75	1243.12
239.96	1251.31
240.17	1251.31
240.38	1247.21
240.60	1308.65
240.81	1294.32
241.02	1282.03
241.23	1251.31
241.45	1363.95
241.66	1191.92
241.87	1380.33
242.08	1255.40
242.30	1271.79
242.51	1312.75
242.72	1290.22
242.93	1308.65
243.15	1269.74
243.36	1361.90
243.57	1363.95
243.78	1322.99
244.00	1331.18
244.21	1189.87
244.42	1284.08
244.63	1325.04
244.85	1353.71
245.06	1265.64
245.27	1306.60
245.48	1253.36
245.70	1263.60
245.91	1382.38
246.12	1327.08
246.33	1372.14
246.54	1464.30
246.76	1267.69
246.97	1325.04
247.18	1312.75
247.39	1204.21
247.61	1322.99
247.82	1316.84
248.03	1292.27
248.24	1290.22
248.45	1322.99
248.67	1279.98
248.88	1320.94
249.09	1382.38
249.30	1298.41
249.52	1333.23
249.73	1341.42
249.94	1239.02
250.15	1308.65
250.36	1347.56
250.58	1486.83
250.79	1341.42
251.00	1306.60
251.21	1370.09
251.43	1208.30
251.64	1525.74
251.85	1298.41
252.06	1316.84
252.27	1349.61
252.49	1306.60
252.70	1253.36
252.91	1173.49
253.12	1257.45
253.33	1406.95
253.55	1259.50
253.76	1298.41
253.97	1251.31
254.18	1241.07
254.39	1322.99
254.61	1204.21
254.82	1341.42
255.03	1402.86
255.24	1259.50
255.45	1210.35
255.67	1261.55
255.88	1298.41
256.09	1325.04
256.30	1275.88
256.51	1372.14
256.73	1394.67
256.94	1249.26
257.15	1380.33
257.36	1279.98
257.57	1370.09
257.78	1179.63
258.00	1300.46
258.21	1384.43
258.42	1228.78
258.63	1284.08
258.84	1204.21
259.06	1255.40
259.27	1337.32
259.48	1322.99
259.69	1349.61
259.90	1234.93
260.11	1378.28
260.33	1259.50
260.54	1277.93
260.75	1322.99
260.96	1284.08
261.17	1347.56
261.38	1368.04
261.60	1296.36
261.81	1251.31
262.02	1327.08
262.23	1308.65
262.44	1357.80
262.65	1320.94
262.87	1314.80
263.08	1402.86
263.29	1279.98
263.50	1263.60
263.71	1322.99
263.92	1257.45
264.13	1341.42
264.35	1286.12
264.56	1318.89
264.77	1284.08
264.98	1206.25
265.19	1198.06
265.40	1282.03
265.62	1341.42
265.83	1261.55
266.04	1404.91
266.25	1306.60
266.46	1269.74
266.67	1431.53
266.88	1318.89
267.10	1263.60
267.31	1386.47
267.52	1243.12
267.73	1212.40
267.94	1247.21
268.15	1302.51
268.36	1155.05
268.57	1322.99
268.79	1261.55
269.00	1341.42
269.21	1259.50
269.42	1322.99
269.63	1222.64
269.84	1308.65
270.05	1206.25
270.27	1288.17
270.48	1253.36
270.69	1189.87
270.90	1261.55
271.11	1282.03
271.32	1462.25
271.53	1282.03
271.74	1249.26
271.96	1363.95
272.17	1273.84
272.38	1241.07
272.59	1150.96
272.80	1267.69
273.01	1333.23
273.22	1316.84
273.43	1308.65
273.64	1210.35
273.86	1355.76
274.07	1345.52
274.28	1339.37
274.49	1284.08
274.70	1279.98
274.91	1322.99
275.12	1394.67
275.33	1161.20
275.54	1257.45
275.76	1337.32
275.97	1277.93
276.18	1277.93
276.39	1257.45
276.60	1304.56
276.81	1298.41
277.02	1275.88
277.23	1253.36
277.44	1239.02
277.65	1353.71
277.86	1372.14
278.08	1290.22
278.29	1327.08
278.50	1341.42
278.71	1245.16
278.92	1275.88
279.13	1216.49
279.34	1275.88
279.55	1310.70
279.76	1298.41
279.97	1282.03
280.18	1476.59
280.40	1318.89
280.61	1191.92
280.82	1325.04
281.03	1175.53
281.24	1437.67
281.45	1210.35
281.66	1271.79
281.87	1290.22
282.08	1226.73
282.29	1378.28
282.50	1214.45
282.71	1261.55
282.92	1488.87
283.13	1253.36
283.35	1271.79
283.56	1257.45
283.77	1271.79
283.98	1290.22
284.19	1228.78
284.40	1216.49
284.61	1239.02
284.82	1378.28
285.03	1404.91
285.24	1191.92
285.45	1241.07
285.66	1325.04
285.87	1263.60
286.08	1261.55
286.29	1359.85
286.50	1331.18
286.71	1302.51
286.93	1216.49
287.14	1294.32
287.35	1351.66
287.56	1214.45
287.77	1384.43
287.98	1288.17
288.19	1316.84
288.40	1308.65
288.61	1357.80
288.82	1355.76
289.03	1366.00
289.24	1359.85
289.45	1415.15
289.66	1249.26
289.87	1368.04
290.08	1259.50
290.29	1224.69
290.50	1298.41
290.71	1187.82
290.92	1390.57
291.13	1257.45
291.34	1333.23
291.55	1275.88
291.76	1163.25
291.97	1181.68
292.18	1247.21
292.39	1300.46
292.61	1296.36
292.82	1210.35
293.03	1454.06
293.24	1243.12
293.45	1179.63
293.66	1265.64
293.87	1308.65
294.08	1253.36
294.29	1290.22
294.50	1402.86
294.71	1415.15
294.92	1208.30
295.13	1449.96
295.34	1171.44
295.55	1200.11
295.76	1292.27
295.97	1386.47
296.18	1378.28
296.39	1277.93
296.60	1327.08
296.81	1288.17
297.02	1198.06
297.23	1394.67
297.44	1234.93
297.65	1320.94
297.86	1267.69
298.07	1099.76
298.28	1236.97
298.49	1171.44
298.70	1212.40
298.91	1347.56
299.12	1189.87
299.33	1173.49
299.54	1288.17
299.75	1247.21
299.96	1230.83
300.17	1370.09
300.38	1230.83
300.59	1236.97
300.80	1308.65
301.01	1329.13
301.22	1308.65
301.43	1296.36
301.64	1228.78
301.85	1193.97
302.06	1296.36
302.27	1275.88
302.48	1531.88
302.69	1191.92
302.89	1325.04
303.10	1310.70
303.31	1239.02
303.52	1314.80
303.73	1298.41
303.94	1224.69
304.15	1234.93
304.36	1279.98
304.57	1290.22
304.78	1347.56
304.99	1314.80
305.20	1234.93
305.41	1284.08
305.62	1357.80
305.83	1257.45
306.04	1165.29
306.25	1339.37
306.46	1282.03
306.67	1341.42
306.88	1343.47
307.09	1249.26
307.30	1255.40
307.51	1318.89
307.72	1312.75
307.93	1189.87
308.14	1224.69
308.35	1259.50
308.55	1345.52
308.76	1146.86
308.97	1239.02
309.18	1447.91
309.39	1212.40
309.60	1331.18
309.81	1288.17
310.02	1218.54
310.23	1163.25
310.44	1267.69
310.65	1339.37
310.86	1286.12
311.07	1363.95
311.28	1284.08
311.49	1222.64
311.70	1355.76
311.91	1189.87
312.11	1234.93
312.32	1228.78
312.53	1236.97
312.74	1255.40
312.95	1267.69
313.16	1347.56
313.37	1298.41
313.58	1230.83
313.79	1116.14
314.00	1284.08
314.21	1159.15
314.42	1163.25
314.63	1222.64
314.83	1335.28
315.04	1308.65
315.25	1282.03
315.46	1372.14
315.67	1263.60
315.88	1251.31
316.09	1298.41
316.30	1294.32
316.51	1257.45
316.72	1232.88
316.93	1196.01
317.13	1374.19
317.34	1189.87
317.55	1345.52
317.76	1218.54
317.97	1236.97
318.18	1286.12
318.39	1355.76
318.60	1310.70
318.81	1245.16
319.02	1349.61
319.23	1361.90
319.43	1357.80
319.64	1329.13
319.85	1267.69
320.06	1320.94
320.27	1366.00
320.48	1314.80
320.69	1288.17
320.90	1261.55
321.11	1357.80
321.31	1306.60
321.52	1259.50
321.73	1409.00
321.94	1310.70
322.15	1140.72
322.36	1411.05
322.57	1322.99
322.78	1222.64
322.98	1314.80
323.19	1345.52
323.40	1271.79
323.61	1277.93
323.82	1271.79
324.03	1228.78
324.24	1423.34
324.45	1327.08
324.65	1224.69
324.86	1247.21
325.07	1398.76
325.28	1277.93
325.49	1347.56
325.70	1312.75
325.91	1320.94
326.12	1282.03
326.32	1269.74
326.53	1241.07
326.74	1275.88
326.95	1247.21
327.16	1357.80
327.37	1380.33
327.58	1265.64
327.78	1296.36
327.99	1210.35
328.20	1296.36
328.41	1298.41
328.62	1175.53
328.83	1277.93
329.04	1208.30
329.24	1273.84
329.45	1196.01
329.66	1363.95
329.87	1378.28
330.08	1218.54
330.29	1226.73
330.49	1366.00
330.70	1218.54
330.91	1284.08
331.12	1263.60
331.33	1308.65
331.54	1312.75
331.74	1236.97
331.95	1230.83
332.16	1226.73
332.37	1259.50
332.58	1423.34
332.79	1228.78
332.99	1337.32
333.20	1318.89
333.41	1300.46
333.62	1353.71
333.83	1292.27
334.04	1249.26
334.24	1310.70
334.45	1206.25
334.66	1273.84
334.87	1316.84
335.08	1275.88
335.29	1214.45
335.49	1249.26
335.70	1351.66
335.91	1308.65
336.12	1376.24
336.33	1261.55
336.53	1224.69
336.74	1345.52
336.95	1245.16
337.16	1216.49
337.37	1294.32
337.57	1288.17
337.78	1255.40
337.99	1300.46
338.20	1245.16
338.41	1222.64
338.62	1228.78
338.82	1312.75
339.03	1300.46
339.24	1292.27
339.45	1349.61
339.65	1136.62
339.86	1234.93
340.07	1404.91
340.28	1224.69
340.49	1271.79
340.69	1273.84
340.90	1368.04
341.11	1277.93
341.32	1345.52
341.53	1161.20
341.73	1302.51
341.94	1286.12
342.15	1292.27
342.36	1374.19
342.57	1472.49
342.77	1310.70
342.98	1255.40
343.19	1181.68
343.40	1366.00
343.60	1304.56
343.81	1302.51
344.02	1288.17
344.23	1366.00
344.44	1193.97
344.64	1169.39
344.85	1359.85
345.06	1284.08
345.27	1198.06
345.47	1353.71
345.68	1279.98
345.89	1251.31
346.10	1443.82
346.30	1220.59
346.51	1320.94
346.72	1449.96
346.93	1355.76
347.13	1150.96
347.34	1361.90
347.55	1327.08
347.76	1212.40
347.97	1349.61
348.17	1208.30
348.38	1298.41
348.59	1257.45
348.80	1288.17
349.00	1308.65
349.21	1275.88
349.42	1337.32
349.63	1398.76
349.83	1210.35
350.04	1216.49
350.25	1275.88
350.45	1216.49
350.66	1257.45
350.87	1255.40
351.08	1292.27
351.28	1419.24
351.49	1279.98
351.70	1419.24
351.91	1196.01
352.11	1282.03
352.32	1202.16
352.53	1357.80
352.74	1226.73
352.94	1347.56
353.15	1300.46
353.36	1327.08
353.56	1177.58
353.77	1271.79
353.98	1327.08
354.19	1345.52
354.39	1159.15
354.60	1148.91
354.81	1355.76
355.02	1286.12
355.22	1347.56
355.43	1279.98
355.64	1290.22
355.84	1284.08
356.05	1247.21
356.26	1439.72
356.47	1288.17
356.67	1257.45
356.88	1337.32
357.09	1249.26
357.29	1271.79
357.50	1509.35
357.71	1193.97
357.92	1314.80
358.12	1271.79
358.33	1220.59
358.54	1226.73
358.74	1386.47
358.95	1337.32
359.16	1341.42
359.36	1261.55
359.57	1296.36
359.78	1290.22
359.98	1298.41
360.19	1279.98
360.40	1320.94
360.61	1372.14
360.81	1302.51
361.02	1208.30
361.23	1273.84
361.43	1232.88
361.64	1279.98
361.85	1273.84
362.05	1322.99
362.26	1251.31
362.47	1366.00
362.67	1169.39
362.88	1329.13
363.09	1183.73
363.29	1189.87
363.50	1275.88
363.71	1300.46
363.91	1308.65
364.12	1439.72
364.33	1275.88
364.53	1304.56
364.74	1333.23
364.95	1257.45
365.15	1292.27
365.36	1251.31
365.57	1382.38
365.77	1378.28
365.98	1218.54
366.19	1341.42
366.39	1263.60
366.60	1316.84
366.81	1214.45
367.01	1374.19
367.22	1300.46
367.43	1366.00
367.63	1310.70
367.84	1267.69
368.05	1325.04
368.25	1325.04
368.46	1279.98
368.67	1273.84
368.87	1214.45
369.08	1200.11
369.29	1126.38
369.49	1347.56
369.70	1290.22
369.91	1271.79
370.11	1236.97
370.32	1218.54
370.52	1325.04
370.73	1361.90
370.94	1198.06
371.14	1263.60
371.35	1406.95
371.56	1388.52
371.76	1349.61
371.97	1368.04
372.18	1224.69
372.38	1167.34
372.59	1230.83
372.79	1236.97
373.00	1148.91
373.21	1363.95
373.41	1273.84
373.62	1214.45
373.83	1198.06
374.03	1304.56
374.24	1282.03
374.44	1322.99
374.65	1359.85
374.86	1251.31
375.06	1267.69
375.27	1282.03
375.47	1339.37
375.68	1251.31
375.89	1261.55
376.09	1390.57
376.30	1214.45
376.50	1329.13
376.71	1277.93
376.92	1265.64
377.12	1284.08
377.33	1269.74
377.54	1275.88
377.74	1308.65
377.95	1458.15
378.15	1275.88
378.36	1251.31
378.57	1409.00
378.77	1316.84
378.98	1228.78
379.18	1255.40
379.39	1312.75
379.59	1298.41
379.80	1259.50
380.01	1249.26
380.21	1294.32
380.42	1286.12
380.62	1318.89
380.83	1198.06
381.04	1251.31
381.24	1361.90
381.45	1378.28
381.65	1320.94
381.86	1198.06
382.06	1372.14
382.27	1277.93
382.48	1161.20
382.68	1382.38
382.89	1296.36
383.09	1337.32
383.30	1251.31
383.51	1239.02
383.71	1376.24
383.92	1222.64
384.12	1259.50
384.33	1269.74
384.53	1273.84
384.74	1296.36
384.94	1411.05
385.15	1394.67
385.36	1355.76
385.56	1255.40
385.77	1325.04
385.97	1202.16
386.18	1261.55
386.38	1259.50
386.59	1292.27
386.79	1353.71
387.00	1273.84
387.21	1327.08
387.41	1382.38
387.62	1351.66
387.82	1331.18
388.03	1349.61
388.23	1347.56
388.44	1239.02
388.64	1243.12
388.85	1329.13
389.06	1288.17
389.26	1302.51
389.47	1327.08
389.67	1263.60
389.88	1480.68
390.08	1316.84
390.29	1329.13
390.49	1325.04
390.70	1417.19
390.90	1306.60
391.11	1279.98
391.31	1333.23
391.52	1224.69
391.72	1355.76
391.93	1255.40
392.13	1316.84
392.34	1243.12
392.55	1357.80
392.75	1386.47
392.96	1253.36
393.16	1384.43
393.37	1284.08
393.57	1312.75
393.78	1304.56
393.98	1329.13
394.19	1322.99
394.39	1300.46
394.60	1378.28
394.80	1232.88
395.01	1398.76
395.21	1435.63
395.42	1411.05
395.62	1361.90
395.83	1284.08
396.03	1368.04
396.24	1466.35
396.44	1413.10
396.65	1277.93
396.85	1277.93
397.06	1325.04
397.26	1335.28
397.47	1355.76
397.67	1386.47
397.88	1284.08
398.08	1357.80
398.29	1347.56
398.49	1400.81
398.70	1312.75
398.90	1267.69
399.11	1302.51
399.31	1499.11
399.52	1349.61
399.72	1370.09
399.93	1417.19
400.13	1306.60
400.34	1437.67
400.54	1454.06
400.75	1318.89
400.95	1269.74
401.15	1431.53
401.36	1404.91
401.56	1339.37
401.77	1333.23
401.97	1269.74
402.18	1361.90
402.38	1445.87
402.59	1421.29
402.79	1363.95
403.00	1361.90
403.20	1366.00
403.41	1339.37
403.61	1257.45
403.82	1335.28
404.02	1267.69
404.22	1378.28
404.43	1423.34
404.63	1390.57
404.84	1472.49
405.04	1257.45
405.25	1341.42
405.45	1400.81
405.66	1398.76
405.86	1325.04
406.07	1329.13
406.27	1333.23
406.47	1255.40
406.68	1339.37
406.88	1343.47
407.09	1347.56
407.29	1366.00
407.50	1279.98
407.70	1361.90
407.91	1277.93
408.11	1429.48
408.31	1413.10
408.52	1349.61
408.72	1318.89
408.93	1419.24
409.13	1464.30
409.34	1552.36
409.54	1327.08
409.74	1437.67
409.95	1306.60
410.15	1331.18
410.36	1302.51
410.56	1398.76
410.77	1361.90
410.97	1376.24
411.17	1437.67
411.38	1396.71
411.58	1394.67
411.79	1388.52
411.99	1378.28
412.19	1406.95
412.40	1292.27
412.60	1497.07
412.81	1406.95
413.01	1368.04
413.22	1419.24
413.42	1359.85
413.62	1378.28
413.83	1353.71
414.03	1351.66
414.24	1466.35
414.44	1447.91
414.64	1456.11
414.85	1413.10
415.05	1497.07
415.26	1456.11
415.46	1294.32
415.66	1458.15
415.87	1366.00
416.07	1452.01
416.28	1411.05
416.48	1476.59
416.68	1490.92
416.89	1501.16
417.09	1476.59
417.29	1366.00
417.50	1443.82
417.70	1386.47
417.91	1415.15
418.11	1396.71
418.31	1337.32
418.52	1343.47
418.72	1386.47
418.93	1456.11
419.13	1390.57
419.33	1505.26
419.54	1476.59
419.74	1384.43
419.94	1583.08
420.15	1431.53
420.35	1376.24
420.56	1505.26
420.76	1398.76
420.96	1337.32
421.17	1458.15
421.37	1509.35
421.57	1535.98
421.78	1478.63
421.98	1437.67
422.18	1499.11
422.39	1513.45
422.59	1429.48
422.80	1443.82
423.00	1468.39
423.20	1492.97
423.41	1478.63
423.61	1478.63
423.81	1454.06
424.02	1513.45
424.22	1466.35
424.42	1472.49
424.63	1521.64
424.83	1464.30
425.03	1538.02
425.24	1566.70
425.44	1525.74
425.64	1435.63
425.85	1452.01
426.05	1466.35
426.25	1595.37
426.46	1435.63
426.66	1472.49
426.86	1603.56
427.07	1476.59
427.27	1523.69
427.47	1828.84
427.68	1495.02
427.88	1578.98
428.08	1701.86
428.29	1427.43
428.49	1458.15
428.69	1695.72
428.90	1439.72
429.10	1574.89
429.30	1523.69
429.51	1538.02
429.71	1525.74
429.91	1437.67
430.12	1568.74
430.32	1609.70
430.52	1439.72
430.72	1419.24
430.93	1507.30
431.13	1538.02
431.33	1513.45
431.54	1578.98
431.74	1527.78
431.94	1515.50
432.15	1517.54
432.35	1593.32
432.55	1470.44
432.76	1492.97
432.96	1572.84
433.16	1570.79
433.36	1619.94
433.57	1511.40
433.77	1626.09
433.97	1607.66
434.18	1499.11
434.38	1538.02
434.58	1613.80
434.78	1630.18
434.99	1701.86
435.19	1677.29
435.39	1497.07
435.60	1615.85
435.80	1781.73
436.00	1564.65
436.20	1646.57
436.41	1576.94
436.61	1570.79
436.81	1540.07
437.02	1533.93
437.22	1595.37
437.42	1607.66
437.62	1599.46
437.83	1804.26
438.03	1585.13
438.23	1562.60
438.43	1660.90
438.64	1701.86
438.84	1619.94
439.04	1714.15
439.25	1695.72
439.45	1660.90
439.65	1621.99
439.85	1615.85
440.06	1591.27
440.26	1716.20
440.46	1718.25
440.66	1642.47
440.87	1574.89
441.07	1722.34
441.27	1708.01
441.47	1718.25
441.68	1699.81
441.88	1710.05
442.08	1587.18
442.28	1722.34
442.49	1632.23
442.69	1775.59
442.89	1609.70
443.09	1757.16
443.30	1519.59
443.50	1726.44
443.70	1634.28
443.90	1656.81
444.10	1685.48
444.31	1746.92
444.51	1554.41
444.71	1650.66
444.91	1705.96
445.12	1757.16
445.32	1865.70
445.52	1615.85
445.72	1677.29
445.93	1587.18
446.13	1665.00
446.33	1748.97
446.53	1763.30
446.73	1609.70
446.94	1621.99
447.14	1654.76
447.34	1677.29
447.54	1738.73
447.74	1628.14
447.95	1751.01
448.15	1763.30
448.35	1734.63
448.55	1791.97
448.76	1648.61
448.96	1703.91
449.16	1628.14
449.36	1796.07
449.56	1587.18
449.77	1710.05
449.97	1697.77
450.17	1617.90
450.37	1710.05
450.57	1738.73
450.78	1679.33
450.98	1665.00
451.18	1677.29
451.38	1638.38
451.58	1728.49
451.79	1617.90
451.99	1650.66
452.19	1736.68
452.39	1783.78
452.59	1730.53
452.79	1652.71
453.00	1699.81
453.20	1759.21
453.40	1705.96
453.60	1771.49
453.80	1732.58
454.01	1648.61
454.21	1734.63
454.41	1665.00
454.61	1753.06
454.81	1832.93
455.01	1769.44
455.22	1640.42
455.42	1794.02
455.62	1814.50
455.82	1751.01
456.02	1861.60
456.22	1771.49
456.43	1785.83
456.63	1687.53
456.83	1710.05
457.03	1769.44
457.23	1804.26
457.43	1617.90
457.64	1744.87
457.84	1812.45
458.04	1726.44
458.24	1720.29
458.44	1767.40
458.64	1787.88
458.84	1865.70
459.05	1703.91
459.25	1757.16
459.45	1861.60
459.65	1880.04
459.85	1787.88
460.05	1794.02
460.25	1918.95
460.46	1933.28
460.66	1826.79
460.86	1740.77
461.06	1841.12
461.26	1855.46
461.46	1794.02
461.66	1796.07
461.87	1882.08
462.07	1777.64
462.27	1886.18
462.47	1843.17
462.67	1906.66
462.87	1970.15
463.07	1824.74
463.27	1861.60
463.48	1812.45
463.68	1818.60
463.88	1779.68
464.08	1980.39
464.28	1908.71
464.48	1906.66
464.68	1808.36
464.88	1787.88
465.08	1900.52
465.29	1882.08
465.49	1867.75
465.69	1910.75
465.89	1974.24
466.09	1945.57
466.29	1904.61
466.49	1877.99
466.69	1816.55
466.89	1904.61
467.10	2088.93
467.30	1970.15
467.50	2082.78
467.70	1896.42
467.90	1943.52
468.10	2021.35
468.30	1865.70
468.50	1990.63
468.70	1968.10
468.90	1966.05
469.10	1972.19
469.31	2088.93
469.51	1927.14
469.71	1980.39
469.91	2045.92
470.11	2043.87
470.31	2013.15
470.51	2047.97
470.71	1961.95
470.91	2043.87
471.11	1994.72
471.31	1996.77
471.51	2013.15
471.71	1959.91
471.92	2107.36
472.12	2039.78
472.32	2050.02
472.52	2136.03
472.72	1914.85
472.92	2164.70
473.12	2187.23
473.32	2158.56
473.52	2140.13
473.72	2236.38
473.92	2215.90
474.12	2222.05
474.32	2133.98
474.52	2246.62
474.72	2166.75
474.92	2111.46
475.13	2250.72
475.33	2246.62
475.53	2263.01
475.73	2326.49
475.93	2344.92
476.13	2281.44
476.33	2381.79
476.53	2535.39
476.73	2267.10
476.93	2484.19
477.13	2521.05
477.33	2609.11
477.53	2547.67
477.73	2635.74
477.93	2541.53
478.13	2691.03
478.33	2619.35
478.53	2709.46
478.73	2818.00
478.93	2682.84
479.13	2746.33
479.33	2775.00
479.53	2926.55
479.73	2987.99
479.93	2920.40
480.13	3055.57
480.33	3084.24
480.53	3088.34
480.73	3188.69
480.93	3323.85
481.13	3098.58
481.34	3291.09
481.54	3403.72
481.74	3526.60
481.94	3493.83
482.14	3774.41
482.34	3719.11
482.54	3790.79
482.74	3823.56
482.94	4173.76
483.14	4044.74
483.34	4091.84
483.54	4263.87
483.74	4507.58
483.94	4360.13
484.14	4544.44
484.34	4538.30
484.54	4880.31
484.74	4997.04
484.94	5185.46
485.14	5130.16
485.34	5367.73
485.54	5615.53
485.74	5781.42
485.93	6082.47
486.13	6074.28
486.33	6264.74
486.53	6649.75
486.73	6748.06
486.93	6983.57
487.13	7229.33
487.33	7534.48
487.53	7579.53
487.73	8163.20
487.93	8290.18
488.13	8720.25
488.33	8908.66
488.53	9240.44
488.73	9566.06
488.93	10004.33
489.13	10479.46
489.33	11095.89
489.53	11446.10
489.73	11980.62
489.93	12234.57
490.13	12736.32
490.33	13358.90
490.53	13846.32
490.73	14376.74
490.93	14665.50
491.13	15206.17
491.33	16054.03
491.53	16568.07
491.73	17211.13
491.93	17645.30
492.12	18214.63
492.32	18611.94
492.52	19125.98
492.72	19990.22
492.92	20514.50
493.12	20948.67
493.32	21665.46
493.52	21866.16
493.72	22441.64
493.92	22628.01
494.12	23389.85
494.32	23705.24
494.52	24034.96
494.72	24456.84
494.92	24768.13
495.12	25058.95
495.31	25304.70
495.51	25794.17
495.71	26164.85
495.91	26027.63
496.11	26357.36
496.31	26281.58
496.51	26625.64
496.71	26328.69
496.91	26381.93
497.11	26730.09
497.31	26381.93
497.51	26494.57
497.71	26209.90
497.90	25939.57
498.10	25634.42
498.30	25538.17
498.50	25288.32
498.70	25136.77
498.90	24688.26
499.10	23987.86
499.30	23664.28
499.50	23604.89
499.70	23135.90
499.89	22329.00
500.09	21440.18
500.29	21274.30
500.49	20594.37
500.69	20088.53
500.89	19572.44
501.09	18859.74
501.29	18450.15
501.49	17983.21
501.69	17147.64
501.88	16682.75
502.08	15922.96
502.28	15453.97
502.48	14610.21
502.68	14006.06
502.88	13631.28
503.08	13096.76
503.28	12361.54
503.47	12253.00
503.67	11546.45
503.87	11077.46
504.07	10444.64
504.27	10262.37
504.47	9609.07
504.67	9140.08
504.87	8544.13
505.06	8056.71
505.26	7839.62
505.46	7339.92
505.66	7120.79
505.86	6887.32
506.06	6639.51
506.26	6279.07
506.45	5789.61
506.65	5805.99
506.85	5744.55
507.05	5216.18
507.25	4906.93
507.45	4894.65
507.65	4753.34
507.84	4677.56
508.04	4499.39
508.24	4272.06
508.44	4292.54
508.64	4163.52
508.84	4075.46
509.04	4159.42
509.23	4028.35
509.43	3917.76
509.63	3899.33
509.83	3782.60
510.03	3958.72
510.23	3565.51
510.42	3700.68
510.62	3776.45
510.82	3739.59
511.02	3991.49
511.22	3608.52
511.42	3610.57
511.61	3712.97
511.81	3678.15
512.01	3602.38
512.21	3661.77
512.41	3696.58
512.60	3708.87
512.80	3841.99
513.00	3702.73
513.20	3610.57
513.40	3655.62
513.60	3776.45
513.79	3739.59
513.99	3708.87
514.19	3747.78
514.39	3805.13
514.59	3749.83
514.78	3733.45
514.98	3743.69
515.18	3665.86
515.38	3721.16
515.58	3934.15
515.77	3626.95
515.97	3692.49
516.17	3801.03
516.37	3794.89
516.57	3784.65
516.76	3850.18
516.96	3870.66
517.16	4020.16
517.36	3772.36
517.56	3819.46
517.75	3991.49
517.95	3891.14
518.15	3917.76
518.35	3723.21
518.55	3917.76
518.74	4050.88
518.94	3905.48
519.14	3923.91
519.34	3946.44
519.53	3874.76
519.73	3930.05
519.93	4093.89
520.13	4032.45
520.32	4044.74
520.52	4059.07
520.72	4143.04
520.92	4046.79
521.12	4097.99
521.31	4093.89
521.51	3995.59
521.71	4022.21
521.91	4100.03
522.10	4024.26
522.30	4042.69
522.50	4179.90
522.70	4157.38
522.89	4167.62
523.09	4130.75
523.29	4079.55
523.49	4198.34
523.68	4138.94
523.88	4175.81
524.08	4321.21
524.28	4130.75
524.47	4247.49
524.67	4112.32
524.87	4050.88
525.07	4169.66
525.26	4184.00
525.46	4159.42
525.66	4331.45
525.86	4335.55
526.05	4229.06
526.25	4270.01
526.45	4192.19
526.64	4151.23
526.84	4192.19
527.04	4036.55
527.24	4167.62
527.43	4093.89
527.63	4272.06
527.83	4263.87
528.03	4229.06
528.22	4241.34
528.42	4327.36
528.62	4343.74
528.81	4165.57
529.01	4190.14
529.21	4153.28
529.41	4364.22
529.60	4341.69
529.80	4306.88
530.00	4251.58
530.19	4388.80
530.39	4347.84
530.59	4446.14
530.79	4204.48
530.98	4280.25
531.18	4227.01
531.38	4218.82
531.57	4349.89
531.77	4231.10
531.97	4241.34
532.16	4396.99
532.36	4329.41
532.56	4186.05
532.76	4288.45
532.95	4388.80
533.15	4294.59
533.35	4423.61
533.54	4413.37
533.74	4466.62
533.94	4517.82
534.13	4177.86
534.33	4396.99
534.53	4315.07
534.72	4505.53
534.92	4399.04
535.12	4255.68
535.31	4470.72
535.51	4292.54
535.71	4335.55
535.90	4458.43
536.10	4405.18
536.30	4421.56
536.49	4462.52
536.69	4304.83
536.89	4372.41
537.08	4411.32
537.28	4247.49
537.48	4597.69
537.67	4313.02
537.87	4407.23
538.07	4431.80
538.26	4272.06
538.46	4356.03
538.66	4444.09
538.85	4466.62
539.05	4683.70
539.25	4343.74
539.44	4495.29
539.64	4394.94
539.84	4489.15
540.03	4513.72
540.23	4528.06
540.42	4523.96
540.62	4716.47
540.82	4448.19
541.01	4454.33
541.21	4378.56
541.41	4538.30
541.60	4399.04
541.80	4577.21
542.00	4526.01
542.19	4526.01
542.39	4364.22
542.58	4411.32
542.78	4407.23
542.98	4435.90
543.17	4517.82
543.37	4440.00
543.57	4544.44
543.76	4544.44
543.96	4511.68
544.15	4536.25
544.35	4671.42
544.55	4511.68
544.74	4546.49
544.94	4593.59
545.13	4589.50
545.33	4716.47
545.53	4581.31
545.72	4702.14
545.92	4638.65
546.11	4526.01
546.31	4593.59
546.51	4501.44
546.70	4775.86
546.90	4583.35
547.09	4614.07
547.29	4669.37
547.49	4577.21
547.68	4689.85
547.88	4550.59
548.07	4695.99
548.27	4726.71
548.47	4839.35
548.66	4913.08
548.86	4743.10
549.05	4665.27
549.25	4630.46
549.45	4702.14
549.64	4868.02
549.84	4798.39
550.03	4812.73
550.23	4906.93
550.42	4980.66
550.62	4861.88
550.82	4560.83
551.01	4816.82
551.21	4804.53
551.40	4892.60
551.60	4757.43
551.79	4900.79
551.99	4808.63
552.19	4765.62
552.38	4868.02
552.58	5021.62
552.77	4919.22
552.97	5058.48
553.16	4960.18
553.36	5025.72
553.55	4865.97
553.75	4908.98
553.95	4798.39
554.14	5130.16
554.34	4896.69
554.53	5068.72
554.73	4960.18
554.92	4941.75
555.12	4980.66
555.31	5058.48
555.51	5124.02
555.70	5164.98
555.90	5124.02
556.09	5109.68
556.29	5164.98
556.49	5087.15
556.68	5179.31
556.88	5105.59
557.07	5148.59
557.27	5019.57
557.46	5136.31
557.66	5175.22
557.85	5017.52
558.05	5285.81
558.24	5273.52
558.44	5111.73
558.63	5248.94
558.83	5152.69
559.02	5095.35
559.22	5234.61
559.41	5181.36
559.61	5171.12
559.80	5359.53
560.00	5103.54
560.19	5191.60
560.39	5296.05
560.58	5332.91
560.78	5230.51
560.97	5216.18
561.17	5183.41
561.36	5236.66
561.56	5298.10
561.75	5109.68
561.95	5359.53
562.14	5281.71
562.34	5253.04
562.53	5236.66
562.73	5255.09
562.92	5273.52
563.12	5111.73
563.31	5173.17
563.51	5273.52
563.70	5187.50
563.90	5334.96
564.09	5136.31
564.29	5244.85
564.48	5244.85
564.68	5189.55
564.87	5289.90
565.07	5310.38
565.26	5285.81
565.46	5199.79
565.65	5435.31
565.85	5214.13
566.04	5136.31
566.24	5246.90
566.43	5140.40
566.63	5214.13
566.82	5177.26
567.01	5068.72
567.21	5310.38
567.40	5273.52
567.60	5207.98
567.79	5326.77
567.99	5443.50
568.18	5261.23
568.38	5179.31
568.57	5185.46
568.77	5216.18
568.96	5298.10
569.15	5242.80
569.35	5167.03
569.54	5369.77
569.74	5255.09
569.93	5113.78
570.13	5291.95
570.32	5271.47
570.52	5275.57
570.71	5142.45
570.90	5257.14
571.10	5240.75
571.29	5228.46
571.49	5136.31
571.68	5052.34
571.88	5277.62
572.07	5207.98
572.26	5400.49
572.46	5138.35
572.65	5328.81
572.85	5289.90
573.04	5169.07
573.24	5167.03
573.43	5439.40
573.62	5228.46
573.82	5203.89
574.01	5212.08
574.21	5296.05
574.40	5224.37
574.59	5148.59
574.79	5226.42
574.98	5255.09
575.18	5111.73
575.37	5230.51
575.56	5263.28
575.76	5072.82
575.95	5140.40
576.15	5197.74
576.34	5191.60
576.53	5066.67
576.73	5320.62
576.92	5210.03
577.12	5050.29
577.31	5189.55
577.50	5273.52
577.70	5171.12
577.89	5160.88
578.09	5306.29
578.28	5169.07
578.47	5105.59
578.67	5408.69
578.86	5273.52
579.06	5334.96
579.25	5302.19
579.44	5169.07
579.64	5459.88
579.83	5207.98
580.02	5273.52
580.22	5273.52
580.41	5261.23
580.61	5289.90
580.80	5380.01
580.99	5246.90
581.19	5275.57
581.38	5269.42
581.57	5287.86
581.77	5267.38
581.96	5181.36
582.15	5085.11
582.35	5433.26
582.54	5150.64
582.73	5230.51
582.93	5273.52
583.12	5316.53
583.32	5224.37
583.51	5210.03
583.70	5306.29
583.90	5373.87
584.09	5388.21
584.28	5406.64
584.48	5248.94
584.67	5418.93
584.86	5402.54
585.06	5380.01
585.25	5375.92
585.44	5400.49
585.64	5283.76
585.83	5445.55
586.02	5279.66
586.22	5375.92
586.41	5185.46
586.60	5316.53
586.80	5328.81
586.99	5300.14
587.18	5357.49
587.38	5289.90
587.57	5463.98
587.76	5304.24
587.96	5380.01
588.15	5341.10
588.34	5240.75
588.53	5431.21
588.73	5232.56
588.92	5298.10
589.11	5525.42
589.31	5394.35
589.50	5392.30
589.69	5361.58
589.89	5308.34
590.08	5408.69
590.27	5400.49
590.47	5390.25
590.66	5246.90
590.85	5539.76
591.04	5228.46
591.24	5246.90
591.43	5423.02
591.62	5449.64
591.82	5261.23
592.01	5418.93
592.20	5427.12
592.39	5474.22
592.59	5402.54
592.78	5384.11
592.97	5388.21
593.17	5398.45
593.36	5363.63
593.55	5484.46
593.74	5357.49
593.94	5408.69
594.13	5386.16
594.32	5404.59
594.52	5279.66
594.71	5406.64
594.90	5550.00
595.09	5535.66
595.29	5255.09
595.48	5416.88
595.67	5423.02
595.86	5365.68
596.06	5377.97
596.25	5443.50
596.44	5371.82
596.63	5263.28
596.83	5375.92
597.02	5369.77
597.21	5242.80
597.40	5289.90
597.60	5234.61
597.79	5463.98
597.98	5134.26
598.17	5445.55
598.37	5367.73
598.56	5173.17
598.75	5365.68
598.94	5281.71
599.14	5343.15
599.33	5330.86
599.52	5298.10
599.71	5255.09
599.91	5455.79
600.10	5228.46
600.29	5238.70
600.48	5273.52
600.68	5543.85
600.87	5224.37
601.06	5349.29
601.25	5318.57
601.44	5142.45
601.64	5250.99
601.83	5298.10
602.02	5214.13
602.21	5310.38
602.41	5085.11
602.60	5273.52
602.79	5224.37
602.98	5255.09
603.17	5232.56
603.37	5207.98
603.56	5169.07
603.75	5066.67
603.94	5070.77
604.13	5097.39
604.33	5205.94
604.52	5164.98
604.71	5214.13
604.90	5199.79
605.09	5390.25
605.29	5195.70
605.48	5203.89
605.67	5074.87
605.86	5189.55
606.05	5076.91
606.25	5124.02
606.44	5072.82
606.63	5175.22
606.82	4966.32
607.01	5081.01
607.20	5132.21
607.40	5154.74
607.59	5171.12
607.78	5050.29
607.97	5068.72
608.16	5054.39
608.36	5040.05
608.55	5074.87
608.74	5003.19
608.93	5144.50
609.12	5119.92
609.31	4978.61
609.51	5105.59
609.70	5070.77
609.89	4919.22
610.08	4960.18
610.27	5048.24
610.46	5007.28
610.66	5130.16
610.85	4974.52
611.04	4937.65
611.23	5033.91
611.42	4995.00
611.61	4972.47
611.80	4931.51
612.00	5154.74
612.19	5062.58
612.38	5187.50
612.57	5044.15
612.76	5027.76
612.95	5144.50
613.14	5066.67
613.34	5015.48
613.53	4831.16
613.72	5040.05
613.91	4933.56
614.10	4843.45
614.29	4904.89
614.48	4915.12
614.67	4900.79
614.87	4933.56
615.06	4960.18
615.25	4980.66
615.44	5054.39
615.63	4945.84
615.82	4861.88
616.01	5046.20
616.20	4878.26
616.40	4913.08
616.59	4962.23
616.78	4902.84
616.97	5001.14
617.16	4796.34
617.35	4966.32
617.54	5183.41
617.73	5013.43
617.92	4968.37
618.12	4810.68
618.31	4902.84
618.50	5085.11
618.69	4962.23
618.88	4872.12
619.07	4857.78
619.26	5019.57
619.45	4888.50
619.64	4841.40
619.83	4913.08
620.02	4954.04
620.22	4945.84
620.41	4855.73
620.60	4906.93
620.79	5044.15
620.98	4833.21
621.17	4816.82
621.36	5017.52
621.55	4855.73
621.74	4995.00
621.93	4880.31
622.12	5146.55
622.31	4837.30
622.51	4995.00
622.70	4865.97
622.89	5103.54
623.08	5164.98
623.27	4911.03
623.46	4941.75
623.65	4837.30
623.84	4728.76
624.03	4870.07
624.22	4990.90
624.41	4890.55
624.60	5058.48
624.79	4923.32
624.98	4984.76
625.17	4865.97
625.36	4997.04
625.55	4937.65
625.74	4855.73
625.94	4896.69
626.13	4913.08
626.32	4890.55
626.51	5027.76
626.70	4904.89
626.89	4896.69
627.08	4917.17
627.27	4943.80
627.46	4880.31
627.65	4984.76
627.84	4933.56
628.03	4841.40
628.22	4831.16
628.41	5017.52
628.60	4728.76
628.79	4900.79
628.98	4894.65
629.17	4931.51
629.36	4982.71
629.55	4997.04
629.74	5070.77
629.93	4890.55
630.12	5136.31
630.31	4982.71
630.50	4904.89
630.69	5056.43
630.88	4935.60
631.07	4874.17
631.26	5068.72
631.45	4982.71
631.64	5035.96
631.83	4923.32
632.02	5011.38
632.21	4906.93
632.40	5097.39
632.59	4962.23
632.78	4997.04
632.97	5015.48
633.16	5175.22
633.35	4945.84
633.54	5031.86
633.73	4908.98
633.92	4995.00
634.11	4945.84
634.30	5003.19
634.49	5040.05
634.68	4995.00
634.87	5038.00
635.06	5019.57
635.25	5105.59
635.44	5109.68
635.63	5025.72
635.82	5167.03
636.01	4982.71
636.20	5283.76
636.39	5199.79
636.58	5199.79
636.77	5003.19
636.96	5220.27
637.15	5263.28
637.34	5195.70
637.53	5212.08
637.72	5273.52
637.91	5285.81
638.09	5285.81
638.28	5097.39
638.47	5117.87
638.66	5259.18
638.85	5214.13
639.04	5312.43
639.23	5250.99
639.42	5105.59
639.61	5289.90
639.80	5248.94
639.99	5308.34
640.18	5195.70
640.37	5560.24
640.56	5234.61
640.75	5177.26
640.94	5238.70
641.13	5287.86
641.32	5404.59
641.50	5148.59
641.69	5349.29
641.88	5164.98
642.07	5445.55
642.26	5320.62
642.45	5345.20
642.64	5377.97
642.83	5281.71
643.02	5568.43
643.21	5226.42
643.40	5699.50
643.59	5269.42
643.77	5298.10
643.96	5519.28
644.15	5423.02
644.34	5484.46
644.53	5414.83
644.72	5435.31
644.91	5324.72
645.10	5574.57
645.29	5363.63
645.48	5371.82
645.67	5461.93
645.85	5558.19
646.04	5373.87
646.23	5408.69
646.42	5541.80
646.61	5412.78
646.80	5400.49
646.99	5420.97
647.18	5576.62
647.37	5400.49
647.55	5556.14
647.74	5652.39
647.93	5552.04
648.12	5525.42
648.31	5482.41
648.50	5572.52
648.69	5650.35
648.88	5627.82
649.06	5597.10
649.25	5527.47
649.44	5400.49
649.63	5468.08
649.82	5611.43
650.01	5595.05
650.20	5457.84
650.39	5547.95
650.57	5734.31
650.76	5502.89
650.95	5629.87
651.14	5607.34
651.33	5369.77
651.52	5617.58
651.70	5496.75
651.89	5580.71
652.08	5400.49
652.27	5732.26
652.46	5601.19
652.65	5552.04
652.84	5500.84
653.02	5511.08
653.21	5455.79
653.40	5558.19
653.59	5533.61
653.78	5543.85
653.97	5398.45
654.15	5459.88
654.34	5545.90
654.53	5392.30
654.72	5363.63
654.91	5412.78
655.10	5390.25
655.28	5457.84
655.47	5523.37
655.66	5257.14
655.85	5509.04
656.04	5388.21
656.23	5363.63
656.41	5310.38
656.60	5320.62
656.79	5271.47
656.98	5236.66
657.17	5392.30
657.35	5304.24
657.54	5048.24
657.73	5226.42
657.92	5164.98
658.11	5023.67
658.29	5017.52
658.48	5238.70
658.67	5005.24
658.86	5224.37
659.05	4951.99
659.23	5189.55
659.42	4945.84
659.61	5027.76
659.80	5068.72
659.99	4851.64
660.17	4929.46
660.36	4761.53
660.55	4888.50
660.74	4878.26
660.92	4788.15
661.11	4788.15
661.30	4706.23
661.49	4835.25
661.68	4618.17
661.86	4614.07
662.05	4775.86
662.24	4691.90
662.43	4665.27
662.61	4571.07
662.80	4722.62
662.99	4562.87
663.18	4595.64
663.37	4380.61
663.55	4509.63
663.74	4771.77
663.93	4523.96
664.12	4530.11
664.30	4620.22
664.49	4368.32
664.68	4368.32
664.87	4372.41
665.05	4292.54
665.24	4284.35
665.43	4466.62
665.62	4259.78
665.80	4335.55
665.99	4263.87
666.18	4304.83
666.37	4349.89
666.55	4235.20
666.74	4257.73
666.93	4323.26
667.11	4130.75
667.30	4218.82
667.49	4167.62
667.68	4212.67
667.86	4147.14
668.05	4097.99
668.24	4143.04
668.43	4145.09
668.61	4151.23
668.80	4218.82
668.99	4005.83
669.17	4048.83
669.36	4108.23
669.55	4079.55
669.74	4050.88
669.92	3930.05
670.11	4011.97
670.30	4044.74
670.48	4167.62
670.67	4134.85
670.86	4001.73
671.05	3942.34
671.23	3962.82
671.42	3938.24
671.61	4009.92
671.79	3981.25
671.98	3825.61
672.17	3925.96
672.35	4087.75
672.54	3930.05
672.73	4005.83
672.91	3979.20
673.10	3880.90
673.29	3968.96
673.48	3846.09
673.66	3966.92
673.85	3860.42
674.04	3844.04
674.22	4057.03
674.41	3891.14
674.60	3901.38
674.78	3768.26
674.97	3997.64
675.16	3928.00
675.34	3784.65
675.53	4011.97
675.72	4061.12
675.90	4100.03
676.09	3932.10
676.28	4022.21
676.46	3973.06
676.65	4036.55
676.84	3985.35
677.02	4044.74
677.21	4050.88
677.40	4050.88
677.58	4038.59
677.77	3993.54
677.95	4063.17
678.14	4073.41
678.33	4097.99
678.51	4173.76
678.70	3993.54
678.89	4026.31
679.07	3997.64
679.26	4044.74
679.45	4169.66
679.63	4206.53
679.82	4165.57
680.01	4155.33
680.19	4020.16
680.38	4054.98
680.56	4270.01
680.75	4286.40
680.94	4306.88
681.12	4231.10
681.31	4241.34
681.50	4265.92
681.68	4339.65
681.87	4157.38
682.05	4337.60
682.24	4476.86
682.43	4403.13
682.61	4534.20
682.80	4523.96
682.98	4489.15
683.17	4394.94
683.36	4546.49
683.54	4562.87
683.73	4548.54
683.91	4577.21
684.10	4652.98
684.29	4786.10
684.47	4605.88
684.66	4767.67
684.84	4605.88
685.03	4782.01
685.22	4810.68
685.40	4646.84
685.59	4831.16
685.77	5048.24
685.96	5019.57
686.15	5072.82
686.33	4847.54
686.52	4966.32
686.70	5138.35
686.89	5048.24
687.07	4943.80
687.26	5068.72
687.45	5117.87
687.63	5111.73
687.82	5191.60
688.00	5314.48
688.19	5353.39
688.37	5402.54
688.56	5445.55
688.75	5470.12
688.93	5466.03
689.12	5431.21
689.30	5468.08
689.49	5597.10
689.67	5568.43
689.86	5613.48
690.04	5734.31
690.23	5486.51
690.42	5566.38
690.60	5808.04
690.79	5777.32
690.97	5902.25
691.16	5644.20
691.34	5918.63
691.53	5959.59
691.71	6035.36
691.90	6049.70
692.08	5797.80
692.27	5945.25
692.45	6010.79
692.64	6125.47
692.83	6107.04
693.01	6164.39
693.20	6178.72
693.38	6205.35
693.57	6350.75
693.75	6158.24
693.94	6205.35
694.12	6291.36
694.31	6346.66
694.49	6418.33
694.68	6365.09
694.86	6447.01
695.05	6299.55
695.23	6641.56
695.42	6578.08
695.60	6467.49
695.79	6598.56
695.97	6778.78
696.16	6682.52
696.34	6602.65
696.53	6741.91
696.71	6688.67
696.90	6772.63
697.08	6825.88
697.27	6856.60
697.45	6819.74
697.64	6930.33
697.82	6950.81
698.01	6887.32
698.19	7049.11
698.38	7171.99
698.56	7030.68
698.75	6932.37
698.93	7139.22
699.12	7188.37
699.30	7131.03
699.49	7069.59
699.67	7061.40
699.86	7346.06
700.04	7090.07
700.22	7131.03
700.41	7147.41
700.59	7393.17
700.78	7323.54
700.96	7391.12
701.15	7255.95
701.33	7337.87
701.52	7407.50
701.70	7468.94
701.89	7421.84
702.07	7384.98
702.26	7450.51
702.44	7614.35
702.62	7483.28
702.81	7487.37
702.99	7395.22
703.18	7565.20
703.36	7581.58
703.55	7653.26
703.73	7587.72
703.92	7677.83
704.10	7532.43
704.28	7665.55
704.47	7690.12
704.65	7579.53
704.84	7819.14
705.02	7612.30
705.21	7585.68
705.39	7645.07
705.57	7815.05
705.76	7763.85
705.94	7645.07
706.13	7864.20
706.31	7630.73
706.50	7718.79
706.68	7870.34
706.86	7683.98
707.05	7751.56
707.23	7866.25
707.42	7985.03
707.60	7833.48
707.78	7804.81
707.97	7923.59
708.15	7946.12
708.34	7944.07
708.52	7784.33
708.70	7974.79
708.89	7749.51
709.07	8212.35
709.26	7956.36
709.44	8079.24
709.62	8056.71
709.81	8036.23
709.99	7964.55
710.18	7933.83
710.36	7903.11
710.54	8134.53
710.73	7935.88
710.91	8019.85
711.10	8157.06
711.28	8064.90
711.46	8243.07
711.65	8198.02
711.83	8204.16
712.01	8193.92
712.20	7978.89
712.38	8146.82
712.57	8230.79
712.75	7980.93
712.93	8193.92
713.12	8179.59
713.30	8327.04
713.48	8052.61
713.67	8052.61
713.85	8097.67
714.03	8245.12
714.22	8181.64
714.40	8136.58
714.58	8181.64
714.77	8155.01
714.95	8124.29
715.14	8118.15
715.32	8060.80
715.50	8177.54
715.69	8081.28
715.87	8066.95
716.05	8157.06
716.24	8155.01
716.42	8077.19
716.60	8222.59
716.79	8198.02
716.97	8050.57
717.15	8142.72
717.34	8095.62
717.52	8150.92
717.70	8116.10
717.89	7974.79
718.07	8062.85
718.25	7942.02
718.44	8083.33
718.62	8210.31
718.80	7972.74
718.98	8062.85
719.17	7970.69
719.35	8054.66
719.53	8091.52
719.72	8079.24
719.90	8081.28
720.08	8015.75
720.27	8036.23
720.45	8175.49
720.63	8013.70
720.82	8230.79
721.00	8054.66
721.18	7894.92
721.36	8015.75
721.55	7929.74
721.73	8013.70
721.91	8048.52
722.10	7935.88
722.28	7886.73
722.46	8062.85
722.64	7927.69
722.83	7890.82
723.01	7987.08
723.19	8013.70
723.38	7856.01
723.56	8091.52
723.74	7835.53
723.92	8009.61
724.11	7788.43
724.29	7929.74
724.47	7964.55
724.65	7827.34
724.84	7774.09
725.02	7917.45
725.20	8021.89
725.39	7792.52
725.57	7886.73
725.75	8042.37
725.93	7843.72
726.12	8040.33
726.30	7856.01
726.48	7937.93
726.66	7823.24
726.85	7759.75
727.03	7866.25
727.21	7835.53
727.39	8023.94
727.58	7892.87
727.76	7632.78
727.94	7876.49
728.12	7720.84
728.30	7675.79
728.49	7643.02
728.67	7686.03
728.85	7917.45
729.03	7683.98
729.22	7688.07
729.40	7876.49
729.58	7817.10
729.76	7561.10
729.95	7780.23
730.13	7530.38
730.31	7696.27
730.49	7591.82
730.67	7616.40
730.86	7640.97
731.04	7708.55
731.22	7624.59
731.40	7733.13
731.58	7567.24
731.77	7839.62
731.95	7557.00
732.13	7468.94
732.31	7434.13
732.50	7802.76
732.68	7524.24
732.86	7747.47
733.04	7477.13
733.22	7499.66
733.40	7384.98
733.59	7544.72
733.77	7548.81
733.95	7548.81
734.13	7473.04
734.31	7450.51
734.50	7749.51
734.68	7370.64
734.86	7274.38
735.04	7415.69
735.22	7460.75
735.41	7460.75
735.59	7397.26
735.77	7208.85
735.95	7413.65
736.13	7141.27
736.31	7282.58
736.50	7327.63
736.68	7466.89
736.86	7276.43
737.04	7190.42
737.22	7147.41
737.40	7251.86
737.59	7180.18
737.77	7094.16
737.95	7116.69
738.13	7114.64
738.31	7108.50
738.49	7131.03
738.67	6983.57
738.86	7114.64
739.04	7032.72
739.22	7004.05
739.40	6952.85
739.58	6979.48
739.76	6959.00
739.94	7114.64
740.13	7239.57
740.31	7069.59
740.49	7163.79
740.67	6979.48
740.85	6997.91
741.03	6940.57
741.21	7010.20
741.39	6832.02
741.58	6887.32
741.76	6789.02
741.94	6883.22
742.12	6877.08
742.30	6842.26
742.48	6821.78
742.66	6711.19
742.84	6832.02
743.03	6682.52
743.21	6688.67
743.39	6748.06
743.57	6643.61
743.75	6836.12
743.93	6789.02
744.11	6516.64
744.29	6469.53
744.47	6641.56
744.65	6729.63
744.84	6786.97
745.02	6524.83
745.20	6561.69
745.38	6440.86
745.56	6338.46
745.74	6455.20
745.92	6430.62
746.10	6528.92
746.28	6424.48
746.46	6432.67
746.64	6317.98
746.82	6428.57
747.01	6270.88
747.19	6328.22
747.37	6205.35
747.55	6414.24
747.73	6401.95
747.91	6281.12
748.09	6225.82
748.27	6373.28
748.45	6209.44
748.63	6391.71
748.81	6238.11
748.99	6215.59
749.17	6117.28
749.35	6145.95
749.53	6191.01
749.72	6129.57
749.90	6135.71
750.08	6117.28
750.26	5963.68
750.44	6055.84
750.62	6148.00
750.80	6178.72
750.98	6053.80
751.16	5996.45
751.34	6074.28
751.52	6104.99
751.70	5885.86
751.88	6092.71
752.06	6254.50
752.24	5816.23
752.42	5918.63
752.60	5984.16
752.78	5787.56
752.96	5846.95
753.14	5930.92
753.32	5937.06
753.50	5939.11
753.68	5836.71
753.86	5810.09
754.04	5760.94
754.22	5941.16
754.40	5894.05
754.58	5787.56
754.76	5869.48
754.94	5758.89
755.12	5828.52
755.30	5771.18
755.48	5840.81
755.66	5920.68
755.84	5695.40
756.02	5844.90
756.20	5523.37
756.38	5908.39
756.56	5877.67
756.74	5648.30
756.92	5787.56
757.10	5701.54
757.28	5656.49
757.46	5564.33
757.64	5734.31
757.82	5623.72
758.00	5623.72
758.18	5650.35
758.36	5672.87
758.54	5535.66
758.72	5724.07
758.90	5470.12
759.08	5623.72
759.26	5748.65
759.44	5730.22
759.62	5658.54
759.80	5517.23
759.98	5586.86
760.16	5550.00
760.34	5535.66
760.52	5691.31
760.70	5613.48
760.88	5443.50
761.06	5420.97
761.24	5623.72
761.42	5431.21
761.60	5586.86
761.77	5388.21
761.95	5511.08
762.13	5685.16
762.31	5339.05
762.49	5496.75
762.67	5564.33
762.85	5351.34
763.03	5226.42
763.21	5234.61
763.39	5361.58
763.57	5320.62
763.75	5242.80
763.93	5484.46
764.11	5226.42
764.29	5371.82
764.46	5324.72
764.64	5181.36
764.82	5257.14
765.00	5210.03
765.18	5302.19
765.36	5304.24
765.54	5273.52
765.72	5316.53
765.90	5201.84
766.08	5273.52
766.26	5183.41
766.44	5101.49
766.61	5140.40
766.79	5181.36
766.97	5207.98
767.15	5134.26
767.33	5121.97
767.51	4986.80
767.69	5052.34
767.87	5054.39
768.05	5072.82
768.22	5089.20
768.40	5248.94
768.58	5068.72
768.76	4908.98
768.94	4986.80
769.12	5009.33
769.30	4859.83
769.48	5140.40
769.66	4892.60
769.83	4945.84
770.01	4937.65
770.19	4915.12
770.37	4929.46
770.55	4818.87
770.73	4917.17
770.91	4820.92
771.09	4679.61
771.26	4622.27
771.44	4958.13
771.62	4724.66
771.80	4743.10
771.98	4831.16
772.16	4620.22
772.34	4720.57
772.51	4632.51
772.69	4745.14
772.87	4761.53
773.05	4632.51
773.23	4706.23
773.41	4607.93
773.58	4665.27
773.76	4556.73
773.94	4710.33
774.12	4661.18
774.30	4616.12
774.48	4575.16
774.65	4540.35
774.83	4431.80
775.01	4497.34
775.19	4546.49
775.37	4538.30
775.55	4509.63
775.72	4452.28
775.90	4605.88
776.08	4458.43
776.26	4560.83
776.44	4503.48
776.61	4390.84
776.79	4466.62
776.97	4337.60
777.15	4362.17
777.33	4216.77
777.51	4278.21
777.68	4278.21
777.86	4247.49
778.04	4233.15
778.22	4317.12
778.40	4302.78
778.57	4249.54
778.75	4343.74
778.93	4179.90
779.11	4235.20
779.29	4360.13
779.46	4212.67
779.64	4091.84
779.82	4122.56
780.00	4118.47
780.17	4124.61
780.35	4126.66
780.53	4169.66
780.71	4167.62
780.89	4085.70
781.06	4048.83
781.24	4091.84
781.42	4052.93
781.60	4116.42
781.77	4126.66
781.95	4093.89
782.13	4052.93
782.31	3999.68
782.48	4104.13
782.66	3921.86
782.84	4134.85
783.02	4048.83
783.19	4048.83
783.37	3973.06
783.55	3962.82
783.73	4018.11
783.90	4063.17
784.08	4067.27
784.26	3977.16
784.44	4003.78
784.61	3946.44
784.79	4040.64
784.97	3772.36
785.15	4024.26
785.32	3844.04
785.50	4009.92
785.68	4030.40
785.86	3979.20
786.03	3807.17
786.21	4059.07
786.39	3919.81
786.57	3860.42
786.74	3729.35
786.92	3975.11
787.10	3993.54
787.27	3710.92
787.45	3950.53
787.63	3887.04
787.81	3889.09
787.98	3815.37
788.16	3766.21
788.34	3934.15
788.51	3852.23
788.69	3684.30
788.87	3788.74
789.04	3893.19
789.22	3860.42
789.40	3614.66
789.58	3661.77
789.75	3848.13
789.93	3846.09
790.11	3821.51
790.28	3737.54
790.46	3733.45
790.64	3747.78
790.81	3766.21
790.99	3739.59
791.17	3690.44
791.34	3674.06
791.52	3637.19
791.70	3655.62
791.87	3704.78
792.05	3758.02
792.23	3614.66
792.40	3659.72
792.58	3489.74
792.76	3604.42
792.93	3813.32
793.11	3622.86
793.29	3729.35
793.46	3604.42
793.64	3696.58
793.82	3698.63
793.99	3489.74
794.17	3508.17
794.35	3547.08
794.52	3762.12
794.70	3633.10
794.88	3686.34
795.05	3631.05
795.23	3395.53
795.41	3633.10
795.58	3555.27
795.76	3577.80
795.94	3389.39
796.11	3563.47
796.29	3633.10
796.46	3565.51
796.64	3542.99
796.82	3432.40
796.99	3567.56
797.17	3461.07
797.35	3534.79
797.52	3534.79
797.70	3547.08
797.87	3506.12
798.05	3585.99
798.23	3434.44
798.40	3418.06
798.58	3379.15
798.76	3364.81
798.93	3485.64
799.11	3332.05
799.28	3475.40
799.46	3373.00
799.64	3463.12
799.81	3452.88
799.99	3387.34
800.16	3309.52
800.34	3389.39
800.52	3321.81
800.69	3428.30
800.87	3323.85
801.04	3397.58
801.22	3493.83
801.39	3444.68
801.57	3319.76
801.75	3276.75
801.92	3442.64
802.10	3356.62
802.27	3315.66
802.45	3348.43
802.63	3381.20
802.80	3491.79
802.98	3239.89
803.15	3373.00
803.33	3266.51
803.50	3323.85
803.68	3346.38
803.86	3366.86
804.03	3397.58
804.21	3381.20
804.38	3313.61
804.56	3430.35
804.73	3327.95
804.91	3018.71
805.08	3276.75
805.26	3184.59
805.44	3243.98
805.61	3252.17
805.79	3086.29
805.96	3137.49
806.14	3129.30
806.31	3125.20
806.49	3207.12
806.66	3330.00
806.84	3155.92
807.01	3114.96
807.19	3196.88
807.36	3207.12
807.54	3090.38
807.71	3119.06
807.89	3100.62
808.07	3248.08
808.24	3172.30
808.42	3127.25
808.59	3186.64
808.77	3104.72
808.94	3313.61
809.12	3149.78
809.29	3174.35
809.47	3141.58
809.64	3112.91
809.82	3086.29
809.99	3086.29
810.17	3334.09
810.34	3121.10
810.52	3006.42
810.69	2979.79
810.87	2955.22
811.04	3033.04
811.22	3041.23
811.39	3033.04
811.57	2996.18
811.74	3088.34
811.92	3014.61
812.09	3088.34
812.27	3155.92
812.44	2942.93
812.62	3223.50
812.79	3076.05
812.97	3168.21
813.14	3082.19
813.31	2932.69
813.49	3121.10
813.66	3037.14
813.84	2834.39
814.01	3012.56
814.19	2910.16
814.36	2967.51
814.54	3002.32
814.71	2942.93
814.89	2924.50
815.06	2985.94
815.24	2932.69
815.41	3067.86
815.58	3033.04
815.76	2987.99
815.93	2959.31
816.11	3117.01
816.28	2725.85
816.46	2865.11
816.63	2854.87
816.81	2936.79
816.98	2904.02
817.15	2803.67
817.33	2961.36
817.50	2850.77
817.68	2797.53
817.85	3076.05
818.03	2799.57
818.20	2725.85
818.37	2828.24
818.55	2963.41
818.72	2789.33
818.90	2830.29
819.07	2858.96
819.25	2994.13
819.42	2803.67
819.59	2754.52
819.77	2740.18
819.94	2904.02
820.12	3010.51
820.29	2965.46
820.46	2826.20
820.64	2863.06
820.81	2740.18
820.99	2922.45
821.16	2781.14
821.33	2725.85
821.51	2953.17
821.68	2723.80
821.86	2936.79
822.03	2729.94
822.20	2787.29
822.38	2856.92
822.55	2734.04
822.73	2688.98
822.90	2861.01
823.07	2623.45
823.25	2828.24
823.42	2766.81
823.59	2772.95
823.77	2779.09
823.94	2797.53
824.12	2650.07
824.29	2709.46
824.46	2562.01
824.64	2666.46
824.81	2656.22
824.98	2553.82
825.16	2664.41
825.33	2596.82
825.50	2605.02
825.68	2699.22
825.85	2719.70
826.03	2625.50
826.20	2621.40
826.37	2664.41
826.55	2602.97
826.72	2570.20
826.89	2639.83
827.07	2715.61
827.24	2580.44
827.41	2660.31
827.59	2441.18
827.76	2660.31
827.93	2555.86
828.11	2598.87
828.28	2607.06
828.45	2598.87
828.63	2500.57
828.80	2643.93
828.97	2613.21
829.15	2691.03
829.32	2398.17
829.49	2502.62
829.67	2504.67
829.84	2486.23
830.01	2482.14
830.18	2582.49
830.36	2605.02
830.53	2566.10
830.70	2584.54
830.88	2451.42
831.05	2451.42
831.22	2648.02
831.40	2375.64
831.57	2414.56
831.74	2580.44
831.91	2537.43
832.09	2383.84
832.26	2420.70
832.43	2521.05
832.61	2404.32
832.78	2473.95
832.95	2383.84
833.13	2424.80
833.30	2404.32
833.47	2471.90
833.64	2402.27
833.82	2469.85
833.99	2242.53
834.16	2404.32
834.33	2486.23
834.51	2467.80
834.68	2383.84
834.85	2379.74
835.03	2457.56
835.20	2389.98
835.37	2371.55
835.54	2176.99
835.72	2519.00
835.89	2379.74
836.06	2404.32
836.23	2283.49
836.41	2291.68
836.58	2342.88
836.75	2371.55
836.92	2385.88
837.10	2263.01
837.27	2344.92
837.44	2443.23
837.61	2205.66
837.78	2361.31
837.96	2310.11
838.13	2377.69
838.30	2357.21
838.47	2279.39
838.65	2232.29
838.82	2260.96
838.99	2297.82
839.16	2086.88
839.34	2271.20
839.51	2269.15
839.68	2357.21
839.85	2375.64
840.02	2174.94
840.20	2088.93
840.37	2207.71
840.54	2256.86
840.71	2344.92
840.88	2240.48
841.06	2136.03
841.23	2334.68
841.40	2291.68
841.57	2244.57
841.74	2125.79
841.92	2217.95
842.09	2207.71
842.26	2265.05
842.43	2111.46
842.60	2117.60
842.78	2179.04
842.95	2158.56
843.12	2224.09
843.29	2209.76
843.46	2193.37
843.64	2148.32
843.81	2082.78
843.98	2195.42
844.15	2314.20
844.32	2045.92
844.49	2097.12
844.67	2242.53
844.84	2170.85
845.01	2019.30
845.18	2070.50
845.35	2119.65
845.52	1988.58
845.70	2283.49
845.87	2131.94
846.04	2217.95
846.21	1984.48
846.38	2158.56
846.55	1972.19
846.72	2148.32
846.90	2201.57
847.07	2023.39
847.24	2154.46
847.41	2127.84
847.58	2082.78
847.75	2084.83
847.92	2015.20
848.10	1992.67
848.27	2025.44
848.44	2156.51
848.61	1900.52
848.78	1943.52
848.95	2080.74
849.12	2037.73
849.29	1988.58
849.47	2111.46
849.64	1957.86
849.81	2043.87
849.98	2119.65
850.15	2029.54
850.32	2078.69
850.49	1888.23
850.66	1914.85
850.84	1935.33
851.01	1951.71
851.18	2021.35
851.35	1923.04
851.52	1822.69
851.69	2004.96
851.86	2099.17
852.03	1900.52
852.20	1933.28
852.37	1976.29
852.54	2035.68
852.72	1978.34
852.89	2170.85
853.06	1992.67
853.23	1992.67
853.40	1912.80
853.57	1824.74
853.74	1976.29
853.91	1937.38
854.08	1880.04
854.25	1691.62
854.42	1855.46
854.59	1923.04
854.76	1916.90
854.94	1861.60
855.11	1845.22
855.28	1722.34
855.45	1861.60
855.62	1880.04
855.79	1890.28
855.96	1808.36
856.13	1820.64
856.30	1806.31
856.47	1863.65
856.64	1814.50
856.81	1779.68
856.98	1847.27
857.15	1798.12
857.32	1753.06
857.49	1875.94
857.66	1755.11
857.83	1837.03
858.00	1794.02
858.17	1882.08
858.35	1871.84
858.52	1923.04
858.69	1832.93
858.86	1644.52
859.03	1755.11
859.20	1787.88
859.37	1753.06
859.54	1771.49
859.71	1849.32
859.88	1669.09
860.05	1781.73
860.22	1757.16
860.39	1755.11
860.56	1804.26
860.73	1920.99
860.90	1718.25
861.07	1802.21
861.24	1759.21
861.41	1880.04
861.58	1699.81
861.75	1681.38
861.92	1773.54
862.09	1775.59
862.26	1777.64
862.43	1732.58
862.60	1710.05
862.77	1808.36
862.94	1597.42
863.11	1755.11
863.28	1689.57
863.45	1689.57
863.62	1642.47
863.79	1650.66
863.96	1771.49
864.13	1816.55
864.30	1646.57
864.46	1609.70
864.63	1787.88
864.80	1644.52
864.97	1900.52
865.14	1505.26
865.31	1621.99
865.48	1697.77
865.65	1677.29
865.82	1810.40
865.99	1699.81
866.16	1720.29
866.33	1789.92
866.50	1646.57
866.67	1841.12
866.84	1597.42
867.01	1748.97
867.18	1628.14
867.35	1773.54
867.52	1837.03
867.69	1699.81
867.85	1562.60
868.02	1748.97
868.19	1748.97
868.36	1576.94
868.53	1658.85
868.70	1783.78
868.87	1685.48
869.04	1628.14
869.21	1644.52
869.38	1691.62
869.55	1703.91
869.72	1671.14
869.89	1581.03
870.05	1574.89
870.22	1665.00
870.39	1621.99
870.56	1812.45
870.73	1538.02
870.90	1843.17
871.07	1660.90
871.24	1656.81
871.41	1660.90
871.58	1632.23
871.74	1556.46
871.91	1562.60
872.08	1640.42
872.25	1533.93
872.42	1538.02
872.59	1538.02
872.76	1554.41
872.93	1794.02
873.10	1540.07
873.26	1609.70
873.43	1675.24
873.60	1652.71
873.77	1572.84
873.94	1538.02
874.11	1656.81
874.28	1669.09
874.45	1673.19
874.61	1527.78
874.78	1499.11
874.95	1523.69
875.12	1660.90
875.29	1642.47
875.46	1544.17
875.63	1705.96
875.79	1671.14
875.96	1492.97
876.13	1499.11
876.30	1531.88
876.47	1556.46
876.64	1583.08
876.80	1517.54
876.97	1521.64
877.14	1587.18
877.31	1587.18
877.48	1673.19
877.65	1626.09
877.81	1642.47
877.98	1503.21
878.15	1628.14
878.32	1550.31
878.49	1648.61
878.66	1677.29
878.82	1601.51
878.99	1648.61
879.16	1531.88
879.33	1511.40
879.50	1617.90
879.67	1648.61
879.83	1517.54
880.00	1437.67
880.17	1499.11
880.34	1538.02
880.51	1435.63
880.67	1525.74
880.84	1621.99
881.01	1613.80
881.18	1533.93
881.35	1550.31
881.51	1497.07
881.68	1638.38
881.85	1644.52
882.02	1454.06
882.18	1513.45
882.35	1578.98
882.52	1519.59
882.69	1509.35
882.86	1544.17
883.02	1535.98
883.19	1552.36
883.36	1538.02
883.53	1501.16
883.69	1476.59
883.86	1525.74
884.03	1566.70
884.20	1628.14
884.36	1513.45
884.53	1566.70
884.70	1470.44
884.87	1447.91
885.04	1587.18
885.20	1662.95
885.37	1492.97
885.54	1447.91
885.71	1490.92
885.87	1480.68
886.04	1417.19
886.21	1564.65
886.38	1546.22
886.54	1554.41
886.71	1490.92
886.88	1591.27
>>>>>End Processed Spectral Data<<<<<
