SpectraSuite Data File
++++++++++++++++++++++++++++++++++++
Date: Fri May 01 10:30:07 EST 2015
User: ocean
Dark Spectrum Present: No
Reference Spectrum Present: No
Number of Sampled Component Spectra: 1
Spectrometers: USB4E02642
Integration Time (usec): 150000 (USB4E02642)
Spectra Averaged: 1 (USB4E02642)
Boxcar Smoothing: 0 (USB4E02642)
Correct for Electrical Dark: No (USB4E02642)
Strobe/Lamp Enabled: No (USB4E02642)
Correct for Detector Non-linearity: No (USB4E02642)
Correct for Stray Light: No (USB4E02642)
Number of Pixels in Processed Spectrum: 3648
>>>>>Begin Processed Spectral Data<<<<<
179.22	1062.90
179.43	1062.90
179.65	1062.90
179.86	960.50
180.08	1050.61
180.29	1329.13
180.51	1218.54
180.72	1292.27
180.94	1271.79
181.15	1259.50
181.37	1398.76
181.58	1157.10
181.80	1275.88
182.01	1230.83
182.23	1363.95
182.44	1320.94
182.66	1316.84
182.87	1288.17
183.09	1243.12
183.30	1263.60
183.52	1322.99
183.73	1370.09
183.95	1372.14
184.16	1245.16
184.38	1304.56
184.59	1236.97
184.81	1341.42
185.02	1277.93
185.24	1226.73
185.45	1335.28
185.67	1273.84
185.88	1378.28
186.10	1124.33
186.31	1251.31
186.53	1273.84
186.74	1212.40
186.96	1304.56
187.17	1255.40
187.39	1202.16
187.60	1296.36
187.81	1402.86
188.03	1378.28
188.24	1259.50
188.46	1314.80
188.67	1476.59
188.89	1210.35
189.10	1411.05
189.32	1351.66
189.53	1286.12
189.75	1300.46
189.96	1366.00
190.18	1316.84
190.39	1230.83
190.61	1304.56
190.82	1298.41
191.04	1394.67
191.25	1425.39
191.46	1363.95
191.68	1314.80
191.89	1368.04
192.11	1247.21
192.32	1249.26
192.54	1320.94
192.75	1273.84
192.97	1421.29
193.18	1343.47
193.40	1304.56
193.61	1423.34
193.83	1341.42
194.04	1355.76
194.25	1366.00
194.47	1376.24
194.68	1390.57
194.90	1320.94
195.11	1370.09
195.33	1288.17
195.54	1366.00
195.76	1320.94
195.97	1288.17
196.18	1255.40
196.40	1347.56
196.61	1304.56
196.83	1349.61
197.04	1277.93
197.26	1417.19
197.47	1279.98
197.69	1212.40
197.90	1271.79
198.11	1312.75
198.33	1277.93
198.54	1302.51
198.76	1347.56
198.97	1415.15
199.19	1271.79
199.40	1304.56
199.61	1159.15
199.83	1222.64
200.04	1359.85
200.26	1267.69
200.47	1304.56
200.69	1347.56
200.90	1329.13
201.11	1200.11
201.33	1230.83
201.54	1398.76
201.76	1345.52
201.97	1284.08
202.19	1329.13
202.40	1355.76
202.61	1341.42
202.83	1329.13
203.04	1374.19
203.26	1292.27
203.47	1316.84
203.68	1411.05
203.90	1304.56
204.11	1333.23
204.33	1165.29
204.54	1374.19
204.75	1310.70
204.97	1279.98
205.18	1247.21
205.40	1269.74
205.61	1241.07
205.83	1501.16
206.04	1292.27
206.25	1339.37
206.47	1331.18
206.68	1421.29
206.90	1320.94
207.11	1210.35
207.32	1148.91
207.54	1300.46
207.75	1351.66
207.97	1224.69
208.18	1210.35
208.39	1363.95
208.61	1298.41
208.82	1447.91
209.03	1398.76
209.25	1417.19
209.46	1320.94
209.68	1284.08
209.89	1263.60
210.10	1382.38
210.32	1320.94
210.53	1288.17
210.75	1433.58
210.96	1277.93
211.17	1247.21
211.39	1345.52
211.60	1286.12
211.82	1267.69
212.03	1290.22
212.24	1234.93
212.46	1327.08
212.67	1333.23
212.88	1216.49
213.10	1245.16
213.31	1341.42
213.53	1402.86
213.74	1357.80
213.95	1312.75
214.17	1331.18
214.38	1404.91
214.59	1368.04
214.81	1437.67
215.02	1302.51
215.23	1251.31
215.45	1267.69
215.66	1263.60
215.88	1249.26
216.09	1236.97
216.30	1302.51
216.52	1220.59
216.73	1198.06
216.94	1374.19
217.16	1359.85
217.37	1388.52
217.58	1298.41
217.80	1535.98
218.01	1308.65
218.22	1357.80
218.44	1312.75
218.65	1337.32
218.87	1353.71
219.08	1357.80
219.29	1322.99
219.51	1339.37
219.72	1277.93
219.93	1349.61
220.15	1363.95
220.36	1292.27
220.57	1327.08
220.79	1263.60
221.00	1257.45
221.21	1357.80
221.43	1390.57
221.64	1292.27
221.85	1286.12
222.07	1314.80
222.28	1363.95
222.49	1298.41
222.71	1302.51
222.92	1245.16
223.13	1157.10
223.35	1198.06
223.56	1294.32
223.77	1349.61
223.99	1322.99
224.20	1404.91
224.41	1292.27
224.63	1351.66
224.84	1320.94
225.05	1370.09
225.27	1404.91
225.48	1421.29
225.69	1273.84
225.91	1230.83
226.12	1249.26
226.33	1472.49
226.55	1239.02
226.76	1322.99
226.97	1234.93
227.19	1325.04
227.40	1269.74
227.61	1298.41
227.82	1314.80
228.04	1185.77
228.25	1263.60
228.46	1286.12
228.68	1425.39
228.89	1347.56
229.10	1300.46
229.32	1349.61
229.53	1204.21
229.74	1312.75
229.96	1269.74
230.17	1312.75
230.38	1380.33
230.59	1284.08
230.81	1269.74
231.02	1236.97
231.23	1202.16
231.45	1349.61
231.66	1318.89
231.87	1312.75
232.09	1325.04
232.30	1275.88
232.51	1284.08
232.72	1302.51
232.94	1206.25
233.15	1396.71
233.36	1273.84
233.58	1255.40
233.79	1335.28
234.00	1325.04
234.21	1269.74
234.43	1335.28
234.64	1310.70
234.85	1298.41
235.07	1267.69
235.28	1292.27
235.49	1163.25
235.70	1429.48
235.92	1312.75
236.13	1314.80
236.34	1382.38
236.56	1234.93
236.77	1359.85
236.98	1339.37
237.19	1353.71
237.41	1308.65
237.62	1411.05
237.83	1447.91
238.04	1409.00
238.26	1304.56
238.47	1359.85
238.68	1378.28
238.89	1271.79
239.11	1347.56
239.32	1300.46
239.53	1378.28
239.75	1228.78
239.96	1183.73
240.17	1269.74
240.38	1251.31
240.60	1331.18
240.81	1363.95
241.02	1310.70
241.23	1210.35
241.45	1390.57
241.66	1234.93
241.87	1351.66
242.08	1388.52
242.30	1239.02
242.51	1331.18
242.72	1312.75
242.93	1282.03
243.15	1341.42
243.36	1429.48
243.57	1316.84
243.78	1441.77
244.00	1298.41
244.21	1222.64
244.42	1378.28
244.63	1292.27
244.85	1275.88
245.06	1292.27
245.27	1423.34
245.48	1220.59
245.70	1310.70
245.91	1433.58
246.12	1230.83
246.33	1335.28
246.54	1378.28
246.76	1320.94
246.97	1370.09
247.18	1296.36
247.39	1189.87
247.61	1392.62
247.82	1349.61
248.03	1271.79
248.24	1409.00
248.45	1288.17
248.67	1378.28
248.88	1273.84
249.09	1304.56
249.30	1337.32
249.52	1452.01
249.73	1349.61
249.94	1349.61
250.15	1304.56
250.36	1339.37
250.58	1488.87
250.79	1329.13
251.00	1249.26
251.21	1452.01
251.43	1247.21
251.64	1466.35
251.85	1267.69
252.06	1388.52
252.27	1320.94
252.49	1368.04
252.70	1331.18
252.91	1286.12
253.12	1292.27
253.33	1300.46
253.55	1193.97
253.76	1357.80
253.97	1290.22
254.18	1208.30
254.39	1290.22
254.61	1251.31
254.82	1314.80
255.03	1390.57
255.24	1331.18
255.45	1353.71
255.67	1269.74
255.88	1279.98
256.09	1265.64
256.30	1308.65
256.51	1386.47
256.73	1392.62
256.94	1189.87
257.15	1413.10
257.36	1247.21
257.57	1370.09
257.78	1191.92
258.00	1302.51
258.21	1402.86
258.42	1296.36
258.63	1269.74
258.84	1230.83
259.06	1394.67
259.27	1302.51
259.48	1388.52
259.69	1329.13
259.90	1171.44
260.11	1435.63
260.33	1144.81
260.54	1279.98
260.75	1316.84
260.96	1241.07
261.17	1390.57
261.38	1316.84
261.60	1316.84
261.81	1284.08
262.02	1337.32
262.23	1304.56
262.44	1427.43
262.65	1341.42
262.87	1353.71
263.08	1329.13
263.29	1302.51
263.50	1263.60
263.71	1284.08
263.92	1279.98
264.13	1275.88
264.35	1345.52
264.56	1314.80
264.77	1427.43
264.98	1275.88
265.19	1218.54
265.40	1290.22
265.62	1341.42
265.83	1306.60
266.04	1433.58
266.25	1370.09
266.46	1271.79
266.67	1357.80
266.88	1345.52
267.10	1304.56
267.31	1316.84
267.52	1241.07
267.73	1284.08
267.94	1300.46
268.15	1314.80
268.36	1222.64
268.57	1423.34
268.79	1325.04
269.00	1296.36
269.21	1292.27
269.42	1241.07
269.63	1273.84
269.84	1294.32
270.05	1239.02
270.27	1345.52
270.48	1331.18
270.69	1257.45
270.90	1232.88
271.11	1425.39
271.32	1398.76
271.53	1271.79
271.74	1271.79
271.96	1366.00
272.17	1308.65
272.38	1316.84
272.59	1179.63
272.80	1304.56
273.01	1288.17
273.22	1226.73
273.43	1273.84
273.64	1239.02
273.86	1452.01
274.07	1316.84
274.28	1269.74
274.49	1341.42
274.70	1341.42
274.91	1337.32
275.12	1417.19
275.33	1273.84
275.54	1316.84
275.76	1279.98
275.97	1277.93
276.18	1353.71
276.39	1255.40
276.60	1308.65
276.81	1320.94
277.02	1312.75
277.23	1241.07
277.44	1259.50
277.65	1234.93
277.86	1376.24
278.08	1284.08
278.29	1279.98
278.50	1398.76
278.71	1271.79
278.92	1290.22
279.13	1300.46
279.34	1322.99
279.55	1312.75
279.76	1366.00
279.97	1267.69
280.18	1470.44
280.40	1386.47
280.61	1241.07
280.82	1316.84
281.03	1314.80
281.24	1411.05
281.45	1322.99
281.66	1204.21
281.87	1251.31
282.08	1320.94
282.29	1347.56
282.50	1124.33
282.71	1228.78
282.92	1531.88
283.13	1370.09
283.35	1218.54
283.56	1347.56
283.77	1206.25
283.98	1355.76
284.19	1296.36
284.40	1271.79
284.61	1277.93
284.82	1370.09
285.03	1425.39
285.24	1284.08
285.45	1212.40
285.66	1351.66
285.87	1296.36
286.08	1306.60
286.29	1357.80
286.50	1232.88
286.71	1320.94
286.93	1269.74
287.14	1208.30
287.35	1325.04
287.56	1286.12
287.77	1341.42
287.98	1263.60
288.19	1374.19
288.40	1294.32
288.61	1292.27
288.82	1378.28
289.03	1433.58
289.24	1439.72
289.45	1413.10
289.66	1335.28
289.87	1351.66
290.08	1253.36
290.29	1308.65
290.50	1366.00
290.71	1267.69
290.92	1437.67
291.13	1296.36
291.34	1302.51
291.55	1300.46
291.76	1212.40
291.97	1245.16
292.18	1341.42
292.39	1318.89
292.61	1398.76
292.82	1298.41
293.03	1478.63
293.24	1259.50
293.45	1218.54
293.66	1320.94
293.87	1296.36
294.08	1265.64
294.29	1241.07
294.50	1445.87
294.71	1429.48
294.92	1259.50
295.13	1361.90
295.34	1234.93
295.55	1218.54
295.76	1226.73
295.97	1421.29
296.18	1441.77
296.39	1361.90
296.60	1439.72
296.81	1279.98
297.02	1230.83
297.23	1370.09
297.44	1353.71
297.65	1390.57
297.86	1402.86
298.07	1193.97
298.28	1302.51
298.49	1202.16
298.70	1329.13
298.91	1402.86
299.12	1191.92
299.33	1208.30
299.54	1329.13
299.75	1339.37
299.96	1329.13
300.17	1388.52
300.38	1257.45
300.59	1153.01
300.80	1234.93
301.01	1282.03
301.22	1298.41
301.43	1339.37
301.64	1224.69
301.85	1191.92
302.06	1392.62
302.27	1249.26
302.48	1462.25
302.69	1230.83
302.89	1372.14
303.10	1388.52
303.31	1230.83
303.52	1316.84
303.73	1337.32
303.94	1284.08
304.15	1208.30
304.36	1318.89
304.57	1312.75
304.78	1302.51
304.99	1284.08
305.20	1226.73
305.41	1429.48
305.62	1353.71
305.83	1288.17
306.04	1210.35
306.25	1347.56
306.46	1239.02
306.67	1327.08
306.88	1347.56
307.09	1316.84
307.30	1316.84
307.51	1361.90
307.72	1284.08
307.93	1282.03
308.14	1355.76
308.35	1343.47
308.55	1402.86
308.76	1234.93
308.97	1261.55
309.18	1456.11
309.39	1337.32
309.60	1331.18
309.81	1337.32
310.02	1255.40
310.23	1212.40
310.44	1241.07
310.65	1357.80
310.86	1331.18
311.07	1435.63
311.28	1202.16
311.49	1288.17
311.70	1288.17
311.91	1245.16
312.11	1257.45
312.32	1175.53
312.53	1212.40
312.74	1312.75
312.95	1269.74
313.16	1425.39
313.37	1331.18
313.58	1279.98
313.79	1177.58
314.00	1267.69
314.21	1169.39
314.42	1230.83
314.63	1243.12
314.83	1380.33
315.04	1257.45
315.25	1284.08
315.46	1347.56
315.67	1277.93
315.88	1333.23
316.09	1413.10
316.30	1392.62
316.51	1288.17
316.72	1214.45
316.93	1267.69
317.13	1347.56
317.34	1144.81
317.55	1378.28
317.76	1236.97
317.97	1273.84
318.18	1257.45
318.39	1445.87
318.60	1316.84
318.81	1234.93
319.02	1400.81
319.23	1409.00
319.43	1286.12
319.64	1269.74
319.85	1218.54
320.06	1226.73
320.27	1294.32
320.48	1308.65
320.69	1333.23
320.90	1214.45
321.11	1308.65
321.31	1357.80
321.52	1306.60
321.73	1370.09
321.94	1302.51
322.15	1230.83
322.36	1400.81
322.57	1341.42
322.78	1277.93
322.98	1423.34
323.19	1370.09
323.40	1320.94
323.61	1370.09
323.82	1239.02
324.03	1239.02
324.24	1380.33
324.45	1376.24
324.65	1282.03
324.86	1376.24
325.07	1406.95
325.28	1339.37
325.49	1333.23
325.70	1376.24
325.91	1316.84
326.12	1196.01
326.32	1245.16
326.53	1304.56
326.74	1329.13
326.95	1384.43
327.16	1325.04
327.37	1325.04
327.58	1294.32
327.78	1243.12
327.99	1216.49
328.20	1236.97
328.41	1271.79
328.62	1183.73
328.83	1325.04
329.04	1157.10
329.24	1265.64
329.45	1239.02
329.66	1271.79
329.87	1347.56
330.08	1316.84
330.29	1320.94
330.49	1454.06
330.70	1320.94
330.91	1349.61
331.12	1218.54
331.33	1232.88
331.54	1316.84
331.74	1245.16
331.95	1353.71
332.16	1308.65
332.37	1218.54
332.58	1370.09
332.79	1298.41
332.99	1331.18
333.20	1347.56
333.41	1282.03
333.62	1361.90
333.83	1275.88
334.04	1292.27
334.24	1300.46
334.45	1232.88
334.66	1357.80
334.87	1161.20
335.08	1325.04
335.29	1245.16
335.49	1302.51
335.70	1419.24
335.91	1236.97
336.12	1482.73
336.33	1144.81
336.53	1236.97
336.74	1306.60
336.95	1363.95
337.16	1214.45
337.37	1318.89
337.57	1282.03
337.78	1296.36
337.99	1302.51
338.20	1298.41
338.41	1247.21
338.62	1265.64
338.82	1329.13
339.03	1298.41
339.24	1302.51
339.45	1409.00
339.65	1279.98
339.86	1241.07
340.07	1349.61
340.28	1284.08
340.49	1363.95
340.69	1279.98
340.90	1406.95
341.11	1366.00
341.32	1380.33
341.53	1163.25
341.73	1275.88
341.94	1193.97
342.15	1314.80
342.36	1347.56
342.57	1378.28
342.77	1312.75
342.98	1284.08
343.19	1361.90
343.40	1318.89
343.60	1390.57
343.81	1312.75
344.02	1339.37
344.23	1374.19
344.44	1163.25
344.64	1288.17
344.85	1368.04
345.06	1249.26
345.27	1263.60
345.47	1284.08
345.68	1325.04
345.89	1271.79
346.10	1386.47
346.30	1259.50
346.51	1298.41
346.72	1454.06
346.93	1284.08
347.13	1263.60
347.34	1349.61
347.55	1265.64
347.76	1284.08
347.97	1378.28
348.17	1249.26
348.38	1259.50
348.59	1320.94
348.80	1263.60
349.00	1245.16
349.21	1269.74
349.42	1349.61
349.63	1370.09
349.83	1210.35
350.04	1183.73
350.25	1327.08
350.45	1241.07
350.66	1200.11
350.87	1265.64
351.08	1279.98
351.28	1331.18
351.49	1327.08
351.70	1304.56
351.91	1296.36
352.11	1275.88
352.32	1304.56
352.53	1368.04
352.74	1247.21
352.94	1284.08
353.15	1247.21
353.36	1302.51
353.56	1218.54
353.77	1265.64
353.98	1370.09
354.19	1339.37
354.39	1218.54
354.60	1245.16
354.81	1388.52
355.02	1179.63
355.22	1394.67
355.43	1257.45
355.64	1243.12
355.84	1288.17
356.05	1282.03
356.26	1382.38
356.47	1361.90
356.67	1378.28
356.88	1359.85
357.09	1265.64
357.29	1196.01
357.50	1406.95
357.71	1218.54
357.92	1300.46
358.12	1304.56
358.33	1329.13
358.54	1243.12
358.74	1447.91
358.95	1302.51
359.16	1282.03
359.36	1263.60
359.57	1294.32
359.78	1390.57
359.98	1298.41
360.19	1226.73
360.40	1402.86
360.61	1447.91
360.81	1314.80
361.02	1327.08
361.23	1263.60
361.43	1239.02
361.64	1263.60
361.85	1404.91
362.05	1325.04
362.26	1279.98
362.47	1339.37
362.67	1232.88
362.88	1308.65
363.09	1234.93
363.29	1282.03
363.50	1226.73
363.71	1267.69
363.91	1308.65
364.12	1454.06
364.33	1206.25
364.53	1267.69
364.74	1251.31
364.95	1370.09
365.15	1308.65
365.36	1216.49
365.57	1337.32
365.77	1390.57
365.98	1329.13
366.19	1425.39
366.39	1216.49
366.60	1339.37
366.81	1214.45
367.01	1271.79
367.22	1425.39
367.43	1394.67
367.63	1359.85
367.84	1329.13
368.05	1433.58
368.25	1343.47
368.46	1288.17
368.67	1306.60
368.87	1220.59
369.08	1251.31
369.29	1210.35
369.49	1355.76
369.70	1329.13
369.91	1353.71
370.11	1275.88
370.32	1232.88
370.52	1275.88
370.73	1398.76
370.94	1245.16
371.14	1298.41
371.35	1308.65
371.56	1404.91
371.76	1277.93
371.97	1486.83
372.18	1245.16
372.38	1316.84
372.59	1210.35
372.79	1290.22
373.00	1243.12
373.21	1333.23
373.41	1206.25
373.62	1271.79
373.83	1173.49
374.03	1241.07
374.24	1361.90
374.44	1411.05
374.65	1390.57
374.86	1308.65
375.06	1374.19
375.27	1304.56
375.47	1386.47
375.68	1327.08
375.89	1198.06
376.09	1468.39
376.30	1263.60
376.50	1361.90
376.71	1421.29
376.92	1347.56
377.12	1296.36
377.33	1339.37
377.54	1363.95
377.74	1306.60
377.95	1415.15
378.15	1204.21
378.36	1298.41
378.57	1243.12
378.77	1370.09
378.98	1226.73
379.18	1185.77
379.39	1331.18
379.59	1239.02
379.80	1263.60
380.01	1296.36
380.21	1320.94
380.42	1402.86
380.62	1421.29
380.83	1122.29
381.04	1349.61
381.24	1378.28
381.45	1316.84
381.65	1320.94
381.86	1210.35
382.06	1427.43
382.27	1363.95
382.48	1259.50
382.68	1366.00
382.89	1296.36
383.09	1400.81
383.30	1411.05
383.51	1277.93
383.71	1359.85
383.92	1302.51
384.12	1372.14
384.33	1333.23
384.53	1327.08
384.74	1382.38
384.94	1351.66
385.15	1333.23
385.36	1337.32
385.56	1296.36
385.77	1386.47
385.97	1185.77
386.18	1228.78
386.38	1288.17
386.59	1304.56
386.79	1304.56
387.00	1286.12
387.21	1333.23
387.41	1439.72
387.62	1386.47
387.82	1314.80
388.03	1347.56
388.23	1269.74
388.44	1304.56
388.64	1320.94
388.85	1384.43
389.06	1353.71
389.26	1302.51
389.47	1380.33
389.67	1282.03
389.88	1466.35
390.08	1322.99
390.29	1388.52
390.49	1353.71
390.70	1322.99
390.90	1292.27
391.11	1273.84
391.31	1398.76
391.52	1255.40
391.72	1380.33
391.93	1232.88
392.13	1437.67
392.34	1271.79
392.55	1333.23
392.75	1337.32
392.96	1322.99
393.16	1439.72
393.37	1273.84
393.57	1234.93
393.78	1355.76
393.98	1413.10
394.19	1419.24
394.39	1288.17
394.60	1445.87
394.80	1353.71
395.01	1427.43
395.21	1452.01
395.42	1452.01
395.62	1271.79
395.83	1259.50
396.03	1447.91
396.24	1449.96
396.44	1454.06
396.65	1349.61
396.85	1300.46
397.06	1265.64
397.26	1333.23
397.47	1353.71
397.67	1447.91
397.88	1363.95
398.08	1312.75
398.29	1347.56
398.49	1349.61
398.70	1361.90
398.90	1243.12
399.11	1275.88
399.31	1507.30
399.52	1415.15
399.72	1353.71
399.93	1439.72
400.13	1394.67
400.34	1396.71
400.54	1503.21
400.75	1380.33
400.95	1462.25
401.15	1470.44
401.36	1316.84
401.56	1382.38
401.77	1386.47
401.97	1218.54
402.18	1404.91
402.38	1300.46
402.59	1382.38
402.79	1359.85
403.00	1339.37
403.20	1388.52
403.41	1394.67
403.61	1392.62
403.82	1390.57
404.02	1366.00
404.22	1325.04
404.43	1316.84
404.63	1345.52
404.84	1445.87
405.04	1269.74
405.25	1394.67
405.45	1333.23
405.66	1279.98
405.86	1312.75
406.07	1449.96
406.27	1355.76
406.47	1357.80
406.68	1357.80
406.88	1466.35
407.09	1394.67
407.29	1355.76
407.50	1384.43
407.70	1372.14
407.91	1386.47
408.11	1431.53
408.31	1396.71
408.52	1470.44
408.72	1318.89
408.93	1404.91
409.13	1447.91
409.34	1542.12
409.54	1302.51
409.74	1423.34
409.95	1286.12
410.15	1452.01
410.36	1363.95
410.56	1357.80
410.77	1521.64
410.97	1425.39
411.17	1427.43
411.38	1431.53
411.58	1396.71
411.79	1439.72
411.99	1392.62
412.19	1343.47
412.40	1431.53
412.60	1507.30
412.81	1388.52
413.01	1423.34
413.22	1411.05
413.42	1462.25
413.62	1411.05
413.83	1564.65
414.03	1366.00
414.24	1497.07
414.44	1441.77
414.64	1474.54
414.85	1351.66
415.05	1550.31
415.26	1517.54
415.46	1384.43
415.66	1390.57
415.87	1378.28
416.07	1544.17
416.28	1343.47
416.48	1511.40
416.68	1423.34
416.89	1447.91
417.09	1519.59
417.29	1398.76
417.50	1419.24
417.70	1441.77
417.91	1458.15
418.11	1445.87
418.31	1406.95
418.52	1482.73
418.72	1390.57
418.93	1396.71
419.13	1495.02
419.33	1556.46
419.54	1503.21
419.74	1435.63
419.94	1454.06
420.15	1417.19
420.35	1435.63
420.56	1458.15
420.76	1468.39
420.96	1345.52
421.17	1427.43
421.37	1521.64
421.57	1505.26
421.78	1490.92
421.98	1480.68
422.18	1527.78
422.39	1503.21
422.59	1439.72
422.80	1535.98
423.00	1447.91
423.20	1478.63
423.41	1409.00
423.61	1449.96
423.81	1488.87
424.02	1507.30
424.22	1492.97
424.42	1490.92
424.63	1503.21
424.83	1456.11
425.03	1449.96
425.24	1550.31
425.44	1597.42
425.64	1388.52
425.85	1509.35
426.05	1505.26
426.25	1529.83
426.46	1406.95
426.66	1464.30
426.86	1632.23
427.07	1597.42
427.27	1497.07
427.47	1894.37
427.68	1550.31
427.88	1621.99
428.08	1634.28
428.29	1466.35
428.49	1447.91
428.69	1708.01
428.90	1445.87
429.10	1501.16
429.30	1535.98
429.51	1576.94
429.71	1587.18
429.91	1552.36
430.12	1597.42
430.32	1689.57
430.52	1521.64
430.72	1495.02
430.93	1619.94
431.13	1542.12
431.33	1513.45
431.54	1589.22
431.74	1550.31
431.94	1509.35
432.15	1486.83
432.35	1589.22
432.55	1490.92
432.76	1538.02
432.96	1495.02
433.16	1576.94
433.36	1730.53
433.57	1607.66
433.77	1675.24
433.97	1578.98
434.18	1523.69
434.38	1542.12
434.58	1642.47
434.78	1546.22
434.99	1671.14
435.19	1669.09
435.39	1482.73
435.60	1566.70
435.80	1834.98
436.00	1558.50
436.20	1585.13
436.41	1515.50
436.61	1585.13
436.81	1564.65
437.02	1576.94
437.22	1540.07
437.42	1648.61
437.62	1665.00
437.83	1683.43
438.03	1589.22
438.23	1624.04
438.43	1615.85
438.64	1718.25
438.84	1617.90
439.04	1693.67
439.25	1767.40
439.45	1849.32
439.65	1626.09
439.85	1681.38
440.06	1660.90
440.26	1693.67
440.46	1730.53
440.66	1646.57
440.87	1667.05
441.07	1701.86
441.27	1787.88
441.47	1617.90
441.68	1730.53
441.88	1685.48
442.08	1683.43
442.28	1720.29
442.49	1755.11
442.69	1791.97
442.89	1681.38
443.09	1583.08
443.30	1511.40
443.50	1761.25
443.70	1628.14
443.90	1615.85
444.10	1665.00
444.31	1753.06
444.51	1628.14
444.71	1755.11
444.91	1611.75
445.12	1685.48
445.32	1884.13
445.52	1701.86
445.72	1589.22
445.93	1646.57
446.13	1609.70
446.33	1689.57
446.53	1650.66
446.73	1638.38
446.94	1583.08
447.14	1669.09
447.34	1570.79
447.54	1755.11
447.74	1611.75
447.95	1755.11
448.15	1644.52
448.35	1824.74
448.55	1607.66
448.76	1658.85
448.96	1732.58
449.16	1667.05
449.36	1710.05
449.56	1632.23
449.77	1759.21
449.97	1726.44
450.17	1593.32
450.37	1728.49
450.57	1697.77
450.78	1738.73
450.98	1693.67
451.18	1755.11
451.38	1621.99
451.58	1691.62
451.79	1695.72
451.99	1722.34
452.19	1705.96
452.39	1865.70
452.59	1847.27
452.79	1849.32
453.00	1730.53
453.20	1703.91
453.40	1683.43
453.60	1826.79
453.80	1769.44
454.01	1720.29
454.21	1759.21
454.41	1830.88
454.61	1740.77
454.81	1800.16
455.01	1757.16
455.22	1683.43
455.42	1861.60
455.62	1949.67
455.82	1736.68
456.02	1765.35
456.22	1667.05
456.43	1796.07
456.63	1775.59
456.83	1712.10
457.03	1826.79
457.23	1794.02
457.43	1724.39
457.64	1863.65
457.84	1781.73
458.04	1820.64
458.24	1742.82
458.44	1755.11
458.64	1728.49
458.84	1802.21
459.05	1720.29
459.25	1777.64
459.45	1834.98
459.65	1783.78
459.85	1714.15
460.05	1855.46
460.25	1964.00
460.46	1929.19
460.66	1929.19
460.86	1843.17
461.06	1800.16
461.26	1765.35
461.46	1777.64
461.66	1828.84
461.87	1972.19
462.07	1834.98
462.27	1912.80
462.47	1751.01
462.67	1849.32
462.87	1877.99
463.07	1787.88
463.27	1841.12
463.48	1748.97
463.68	1884.13
463.88	1726.44
464.08	1916.90
464.28	1779.68
464.48	1804.26
464.68	1910.75
464.88	1904.61
465.08	1853.41
465.29	1820.64
465.49	1867.75
465.69	1908.71
465.89	2058.21
466.09	1964.00
466.29	1923.04
466.49	1980.39
466.69	1918.95
466.89	1980.39
467.10	1986.53
467.30	2050.02
467.50	2090.98
467.70	1875.94
467.90	1929.19
468.10	1939.43
468.30	2035.68
468.50	1951.71
468.70	2037.73
468.90	2025.44
469.10	1886.18
469.31	2090.98
469.51	1968.10
469.71	1923.04
469.91	2070.50
470.11	2068.45
470.31	2050.02
470.51	1980.39
470.71	1953.76
470.91	2113.50
471.11	2058.21
471.31	1916.90
471.51	2078.69
471.71	2019.30
471.92	2129.89
472.12	2086.88
472.32	2074.59
472.52	2170.85
472.72	2131.94
472.92	2060.26
473.12	2197.47
473.32	2142.18
473.52	2263.01
473.72	2273.25
473.92	2187.23
474.12	2213.85
474.32	2189.28
474.52	2297.82
474.72	2115.55
474.92	2301.92
475.13	2308.06
475.33	2250.72
475.53	2332.64
475.73	2303.96
475.93	2293.72
476.13	2396.12
476.33	2414.56
476.53	2480.09
476.73	2369.50
476.93	2496.47
477.13	2562.01
477.33	2510.81
477.53	2488.28
477.73	2811.86
477.93	2533.34
478.13	2887.64
478.33	2693.08
478.53	2772.95
478.73	2779.09
478.93	2801.62
479.13	2717.65
479.33	2844.63
479.53	2967.51
479.73	2971.60
479.93	2926.55
480.13	3033.04
480.33	3188.69
480.53	3051.47
480.73	3260.37
480.93	3340.24
481.13	3340.24
481.34	3293.13
481.54	3426.25
481.74	3418.06
481.94	3510.22
482.14	3825.61
482.34	3733.45
482.54	3821.51
482.74	3893.19
482.94	4081.60
483.14	4063.17
483.34	4077.51
483.54	4243.39
483.74	4448.19
483.94	4343.74
484.14	4532.15
484.34	4691.90
484.54	4872.12
484.74	4954.04
484.94	5357.49
485.14	5136.31
485.34	5617.58
485.54	5595.05
485.74	5683.11
485.93	6049.70
486.13	6223.78
486.33	6131.62
486.53	6623.13
486.73	6956.95
486.93	7018.39
487.13	7184.27
487.33	7667.60
487.53	7686.03
487.73	7978.89
487.93	8451.97
488.13	8734.59
488.33	9121.65
488.53	9492.34
488.73	9639.79
488.93	10145.64
489.13	10391.39
489.33	10794.84
489.53	11544.40
489.73	11968.33
489.93	12377.92
490.13	12648.26
490.33	13385.52
490.53	13709.10
490.73	14448.42
490.93	14896.92
491.13	15400.72
491.33	15994.64
491.53	16920.32
491.73	17098.49
491.93	17866.48
492.12	18372.33
492.32	18712.29
492.52	19244.76
492.72	20178.64
492.92	20264.65
493.12	20821.70
493.32	21628.60
493.52	22124.21
493.72	22349.48
493.92	22955.68
494.12	23565.98
494.32	23619.22
494.52	24063.63
494.72	24440.46
494.92	25353.85
495.12	25161.34
495.31	25355.90
495.51	25925.24
495.71	26351.21
495.91	26054.26
496.11	26324.59
496.31	26332.78
496.51	26682.98
496.71	26345.07
496.91	26455.66
497.11	26754.66
497.31	26566.25
497.51	26365.55
497.71	26453.61
497.90	26154.61
498.10	25929.33
498.30	25486.97
498.50	25480.83
498.70	24815.24
498.90	24553.10
499.10	24012.43
499.30	23637.66
499.50	23242.40
499.70	22886.05
499.89	22396.59
500.09	21774.00
500.29	21452.47
500.49	20909.76
500.69	19988.18
500.89	19658.45
501.09	18968.29
501.29	18454.25
501.49	18024.17
501.69	16953.09
501.88	16473.86
502.08	15941.39
502.28	15351.57
502.48	14728.99
502.68	14421.80
502.88	13713.20
503.08	13184.82
503.28	12392.26
503.47	11812.68
503.67	11419.47
503.87	10813.28
504.07	10389.35
504.27	9889.64
504.47	9473.90
504.67	9224.05
504.87	8673.15
505.06	8204.16
505.26	7905.16
505.46	7407.50
505.66	7333.78
505.86	6733.72
506.06	6477.73
506.26	6168.48
506.45	5990.31
506.65	5922.73
506.85	5425.07
507.05	5128.11
507.25	5019.57
507.45	4872.12
507.65	4749.24
507.84	4663.22
508.04	4612.03
508.24	4356.03
508.44	4313.02
508.64	4157.38
508.84	4028.35
509.04	4065.22
509.23	3899.33
509.43	4034.50
509.63	3835.85
509.83	3760.07
510.03	3854.28
510.23	3774.41
510.42	3655.62
510.62	3715.02
510.82	3645.38
511.02	3893.19
511.22	3680.20
511.42	3688.39
511.61	3692.49
511.81	3655.62
512.01	3594.19
512.21	3655.62
512.41	3657.67
512.60	3723.21
512.80	3717.06
513.00	3717.06
513.20	3657.67
513.40	3618.76
513.60	3600.33
513.79	3749.83
513.99	3829.70
514.19	3794.89
514.39	3741.64
514.59	3706.82
514.78	3749.83
514.98	3749.83
515.18	3717.06
515.38	3979.20
515.58	3796.93
515.77	3817.41
515.97	3684.30
516.17	3821.51
516.37	3581.90
516.57	3829.70
516.76	3827.65
516.96	3887.04
517.16	3971.01
517.36	3917.76
517.56	3825.61
517.75	3809.22
517.95	3979.20
518.15	3928.00
518.35	3889.09
518.55	4050.88
518.74	4104.13
518.94	3790.79
519.14	3819.46
519.34	4054.98
519.53	3925.96
519.73	3958.72
519.93	3989.44
520.13	3960.77
520.32	4073.41
520.52	4026.31
520.72	4179.90
520.92	3913.67
521.12	4138.94
521.31	4022.21
521.51	4100.03
521.71	4034.50
521.91	4075.46
522.10	4022.21
522.30	3991.49
522.50	4104.13
522.70	4083.65
522.89	4093.89
523.09	4231.10
523.29	3995.59
523.49	4204.48
523.68	4270.01
523.88	4202.43
524.08	4222.91
524.28	4284.35
524.47	4306.88
524.67	4319.17
524.87	4140.99
525.07	4290.49
525.26	4233.15
525.46	4409.28
525.66	4333.50
525.86	4265.92
526.05	4356.03
526.25	4237.25
526.45	4106.18
526.64	4214.72
526.84	4261.82
527.04	4329.41
527.24	4483.00
527.43	4173.76
527.63	4339.65
527.83	4306.88
528.03	4208.58
528.22	4212.67
528.42	4331.45
528.62	4493.24
528.81	4284.35
529.01	4149.18
529.21	4286.40
529.41	4513.72
529.60	4222.91
529.80	4343.74
530.00	4394.94
530.19	4345.79
530.39	4478.91
530.59	4337.60
530.79	4233.15
530.98	4323.26
531.18	4157.38
531.38	4302.78
531.57	4292.54
531.77	4310.97
531.97	4347.84
532.16	4347.84
532.36	4353.98
532.56	4331.45
532.76	4362.17
532.95	4437.95
533.15	4272.06
533.35	4343.74
533.54	4417.47
533.74	4325.31
533.94	4534.20
534.13	4384.70
534.33	4450.24
534.53	4480.96
534.72	4409.28
534.92	4409.28
535.12	4460.48
535.31	4427.71
535.51	4331.45
535.71	4337.60
535.90	4612.03
536.10	4411.32
536.30	4315.07
536.49	4431.80
536.69	4339.65
536.89	4540.35
537.08	4286.40
537.28	4372.41
537.48	4394.94
537.67	4333.50
537.87	4487.10
538.07	4333.50
538.26	4243.39
538.46	4411.32
538.66	4300.73
538.85	4343.74
539.05	4779.96
539.25	4337.60
539.44	4528.06
539.64	4452.28
539.84	4554.68
540.03	4446.14
540.23	4605.88
540.42	4442.04
540.62	4712.38
540.82	4526.01
541.01	4448.19
541.21	4405.18
541.41	4429.76
541.60	4523.96
541.80	4448.19
542.00	4366.27
542.19	4480.96
542.39	4564.92
542.58	4538.30
542.78	4487.10
542.98	4399.04
543.17	4548.54
543.37	4622.27
543.57	4509.63
543.76	4630.46
543.96	4620.22
544.15	4769.72
544.35	4642.75
544.55	4523.96
544.74	4587.45
544.94	4612.03
545.13	4521.92
545.33	4571.07
545.53	4704.18
545.72	4642.75
545.92	4739.00
546.11	4671.42
546.31	4749.24
546.51	4673.46
546.70	4716.47
546.90	4704.18
547.09	4706.23
547.29	4644.79
547.49	4732.86
547.68	4786.10
547.88	4708.28
548.07	4802.49
548.27	4728.76
548.47	4831.16
548.66	4831.16
548.86	4835.25
549.05	4763.58
549.25	4745.14
549.45	4863.93
549.64	4888.50
549.84	4937.65
550.03	4847.54
550.23	4904.89
550.42	5052.34
550.62	4782.01
550.82	4734.90
551.01	4913.08
551.21	4745.14
551.40	4839.35
551.60	4710.33
551.79	5046.20
551.99	4765.62
552.19	4906.93
552.38	4868.02
552.58	5111.73
552.77	4990.90
552.97	4933.56
553.16	5095.35
553.36	4995.00
553.55	5015.48
553.75	5013.43
553.95	4898.74
554.14	5023.67
554.34	4984.76
554.53	5060.53
554.73	5015.48
554.92	5148.59
555.12	4992.95
555.31	4960.18
555.51	5183.41
555.70	5107.63
555.90	5056.43
556.09	4978.61
556.29	5017.52
556.49	5124.02
556.68	5087.15
556.88	5160.88
557.07	5140.40
557.27	5218.22
557.46	5162.93
557.66	5203.89
557.85	5191.60
558.05	5242.80
558.24	5113.78
558.44	5164.98
558.63	5173.17
558.83	5298.10
559.02	5160.88
559.22	5152.69
559.41	5255.09
559.61	5273.52
559.80	5138.35
560.00	5339.05
560.19	5224.37
560.39	5242.80
560.58	5484.46
560.78	5093.30
560.97	5283.76
561.17	5255.09
561.36	5220.27
561.56	5236.66
561.75	5269.42
561.95	5420.97
562.14	5285.81
562.34	5316.53
562.53	5228.46
562.73	5158.83
562.92	5136.31
563.12	5199.79
563.31	5158.83
563.51	5142.45
563.70	5359.53
563.90	5164.98
564.09	5138.35
564.29	5373.87
564.48	5167.03
564.68	5341.10
564.87	5425.07
565.07	5226.42
565.26	5339.05
565.46	5312.43
565.65	5306.29
565.85	5470.12
566.04	5162.93
566.24	5228.46
566.43	5300.14
566.63	5187.50
566.82	5173.17
567.01	5257.14
567.21	5224.37
567.40	5347.25
567.60	5132.21
567.79	5400.49
567.99	5312.43
568.18	5324.72
568.38	5085.11
568.57	5271.47
568.77	5263.28
568.96	5283.76
569.15	5261.23
569.35	5089.20
569.54	5482.41
569.74	5250.99
569.93	5291.95
570.13	5230.51
570.32	5253.04
570.52	5236.66
570.71	5347.25
570.90	5171.12
571.10	5240.75
571.29	5205.94
571.49	5148.59
571.68	5218.22
571.88	5334.96
572.07	5232.56
572.26	5273.52
572.46	5242.80
572.65	5359.53
572.85	5371.82
573.04	5222.32
573.24	5304.24
573.43	5347.25
573.62	5320.62
573.82	5277.62
574.01	5138.35
574.21	5261.23
574.40	5193.65
574.59	5189.55
574.79	5326.77
574.98	5066.67
575.18	5179.31
575.37	5324.72
575.56	5124.02
575.76	5195.70
575.95	5277.62
576.15	5232.56
576.34	5146.55
576.53	5152.69
576.73	5437.36
576.92	5240.75
577.12	5189.55
577.31	5310.38
577.50	5183.41
577.70	5214.13
577.89	5255.09
578.09	5423.02
578.28	5121.97
578.47	5259.18
578.67	5296.05
578.86	5337.01
579.06	5382.06
579.25	5195.70
579.44	5205.94
579.64	5627.82
579.83	5160.88
580.02	5363.63
580.22	5158.83
580.41	5367.73
580.61	5298.10
580.80	5310.38
580.99	5375.92
581.19	5291.95
581.38	5316.53
581.57	5359.53
581.77	5279.66
581.96	5289.90
582.15	5300.14
582.35	5308.34
582.54	5296.05
582.73	5261.23
582.93	5271.47
583.12	5257.14
583.32	5283.76
583.51	5240.75
583.70	5322.67
583.90	5449.64
584.09	5255.09
584.28	5449.64
584.48	5263.28
584.67	5400.49
584.86	5113.78
585.06	5324.72
585.25	5300.14
585.44	5367.73
585.64	5240.75
585.83	5506.99
586.02	5240.75
586.22	5236.66
586.41	5263.28
586.60	5187.50
586.80	5304.24
586.99	5375.92
587.18	5369.77
587.38	5451.69
587.57	5351.34
587.76	5408.69
587.96	5304.24
588.15	5584.81
588.34	5400.49
588.53	5300.14
588.73	5281.71
588.92	5500.84
589.11	5337.01
589.31	5638.06
589.50	5451.69
589.69	5396.40
589.89	5347.25
590.08	5420.97
590.27	5363.63
590.47	5326.77
590.66	5294.00
590.85	5355.44
591.04	5287.86
591.24	5302.19
591.43	5457.84
591.62	5445.55
591.82	5377.97
592.01	5498.80
592.20	5566.38
592.39	5529.52
592.59	5367.73
592.78	5433.26
592.97	5527.47
593.17	5425.07
593.36	5500.84
593.55	5437.36
593.74	5355.44
593.94	5408.69
594.13	5449.64
594.32	5298.10
594.52	5392.30
594.71	5314.48
594.90	5509.04
595.09	5371.82
595.29	5351.34
595.48	5285.81
595.67	5359.53
595.86	5337.01
596.06	5463.98
596.25	5408.69
596.44	5470.12
596.63	5234.61
596.83	5470.12
597.02	5580.71
597.21	5332.91
597.40	5582.76
597.60	5402.54
597.79	5388.21
597.98	5218.22
598.17	5390.25
598.37	5504.94
598.56	5300.14
598.75	5281.71
598.94	5281.71
599.14	5486.51
599.33	5427.12
599.52	5224.37
599.71	5412.78
599.91	5427.12
600.10	5298.10
600.29	5277.62
600.48	5291.95
600.68	5324.72
600.87	5214.13
601.06	5420.97
601.25	5277.62
601.44	5296.05
601.64	5210.03
601.83	5441.45
602.02	5351.34
602.21	5216.18
602.41	5394.35
602.60	5341.10
602.79	5232.56
602.98	5365.68
603.17	5318.57
603.37	5320.62
603.56	5349.29
603.75	5181.36
603.94	5310.38
604.13	5183.41
604.33	5250.99
604.52	5160.88
604.71	5056.43
604.90	5263.28
605.09	5345.20
605.29	5296.05
605.48	5238.70
605.67	5046.20
605.86	5097.39
606.05	5244.85
606.25	5148.59
606.44	5154.74
606.63	5179.31
606.82	5236.66
607.01	5107.63
607.20	5144.50
607.40	5148.59
607.59	5222.32
607.78	5255.09
607.97	5097.39
608.16	5203.89
608.36	5216.18
608.55	4982.71
608.74	5173.17
608.93	5302.19
609.12	5167.03
609.31	5001.14
609.51	5040.05
609.70	5074.87
609.89	5117.87
610.08	5111.73
610.27	5009.33
610.46	5056.43
610.66	4988.85
610.85	5085.11
611.04	5156.79
611.23	5091.25
611.42	5089.20
611.61	5052.34
611.80	5119.92
612.00	5140.40
612.19	4999.09
612.38	5056.43
612.57	5087.15
612.76	5136.31
612.95	5279.66
613.14	5154.74
613.34	4863.93
613.53	4978.61
613.72	5109.68
613.91	4917.17
614.10	4980.66
614.29	5212.08
614.48	4982.71
614.67	4978.61
614.87	5033.91
615.06	4974.52
615.25	5042.10
615.44	5052.34
615.63	5019.57
615.82	5023.67
616.01	5099.44
616.20	4749.24
616.40	4986.80
616.59	5081.01
616.78	4878.26
616.97	4908.98
617.16	4935.60
617.35	5062.58
617.54	5103.54
617.73	5046.20
617.92	4999.09
618.12	4906.93
618.31	4937.65
618.50	5334.96
618.69	5003.19
618.88	4960.18
619.07	4945.84
619.26	5089.20
619.45	5007.28
619.64	4978.61
619.83	4829.11
620.02	4865.97
620.22	4978.61
620.41	4974.52
620.60	5009.33
620.79	5050.29
620.98	4700.09
621.17	4925.36
621.36	5214.13
621.55	4892.60
621.74	5046.20
621.93	5074.87
622.12	5101.49
622.31	4945.84
622.51	4976.56
622.70	4960.18
622.89	5234.61
623.08	5007.28
623.27	5017.52
623.46	4898.74
623.65	4937.65
623.84	4859.83
624.03	4962.23
624.22	5183.41
624.41	5076.91
624.60	4962.23
624.79	5027.76
624.98	4997.04
625.17	4861.88
625.36	4908.98
625.55	5013.43
625.74	5121.97
625.94	5066.67
626.13	4972.47
626.32	4929.46
626.51	5044.15
626.70	4974.52
626.89	4911.03
627.08	5052.34
627.27	5072.82
627.46	4927.41
627.65	5070.77
627.84	4954.04
628.03	5052.34
628.22	4915.12
628.41	5095.35
628.60	4870.07
628.79	4898.74
628.98	4956.08
629.17	4984.76
629.36	4904.89
629.55	5009.33
629.74	5042.10
629.93	4947.89
630.12	4964.28
630.31	5076.91
630.50	4941.75
630.69	5124.02
630.88	4947.89
631.07	5214.13
631.26	5068.72
631.45	4999.09
631.64	5035.96
631.83	5023.67
632.02	5148.59
632.21	5013.43
632.40	5214.13
632.59	5199.79
632.78	5019.57
632.97	5126.07
633.16	5148.59
633.35	4976.56
633.54	5056.43
633.73	5130.16
633.92	5064.63
634.11	5058.48
634.30	5078.96
634.49	5195.70
634.68	5044.15
634.87	5130.16
635.06	5173.17
635.25	5109.68
635.44	5234.61
635.63	5085.11
635.82	5195.70
636.01	5093.30
636.20	5300.14
636.39	5201.84
636.58	5273.52
636.77	5334.96
636.96	5060.53
637.15	5316.53
637.34	5433.26
637.53	5302.19
637.72	5289.90
637.91	5207.98
638.09	5238.70
638.28	5246.90
638.47	5412.78
638.66	5337.01
638.85	5205.94
639.04	5429.17
639.23	5111.73
639.42	5414.83
639.61	5324.72
639.80	5597.10
639.99	5361.58
640.18	5345.20
640.37	5617.58
640.56	5261.23
640.75	5377.97
640.94	5341.10
641.13	5369.77
641.32	5517.23
641.50	5371.82
641.69	5267.38
641.88	5390.25
642.07	5527.47
642.26	5550.00
642.45	5451.69
642.64	5351.34
642.83	5564.33
643.02	5576.62
643.21	5525.42
643.40	5631.91
643.59	5400.49
643.77	5441.45
643.96	5584.81
644.15	5644.20
644.34	5523.37
644.53	5423.02
644.72	5525.42
644.91	5500.84
645.10	5572.52
645.29	5625.77
645.48	5521.32
645.67	5562.28
645.85	5511.08
646.04	5664.68
646.23	5609.39
646.42	5642.15
646.61	5619.63
646.80	5652.39
646.99	5478.32
647.18	5625.77
647.37	5435.31
647.55	5537.71
647.74	5846.95
647.93	5674.92
648.12	5648.30
648.31	5615.53
648.50	5517.23
648.69	5787.56
648.88	5640.11
649.06	5523.37
649.25	5627.82
649.44	5541.80
649.63	5595.05
649.82	5771.18
650.01	5707.69
650.20	5629.87
650.39	5455.79
650.57	5771.18
650.76	5668.78
650.95	5629.87
651.14	5713.83
651.33	5656.49
651.52	5603.24
651.70	5609.39
651.89	5463.98
652.08	5523.37
652.27	5855.14
652.46	5752.74
652.65	5599.15
652.84	5605.29
653.02	5662.63
653.21	5451.69
653.40	5570.48
653.59	5470.12
653.78	5441.45
653.97	5623.72
654.15	5754.79
654.34	5547.95
654.53	5402.54
654.72	5474.22
654.91	5490.60
655.10	5386.16
655.28	5533.61
655.47	5482.41
655.66	5545.90
655.85	5437.36
656.04	5521.32
656.23	5431.21
656.41	5259.18
656.60	5365.68
656.79	5375.92
656.98	5224.37
657.17	5222.32
657.35	5318.57
657.54	5300.14
657.73	5287.86
657.92	5347.25
658.11	5259.18
658.29	4933.56
658.48	5279.66
658.67	5177.26
658.86	5351.34
659.05	5169.07
659.23	5332.91
659.42	5140.40
659.61	5169.07
659.80	5107.63
659.99	5189.55
660.17	4974.52
660.36	4861.88
660.55	4915.12
660.74	4988.85
660.92	4833.21
661.11	4929.46
661.30	4814.77
661.49	4814.77
661.68	4700.09
661.86	4767.67
662.05	4745.14
662.24	4659.13
662.43	4847.54
662.61	4839.35
662.80	4669.37
662.99	4575.16
663.18	4632.51
663.37	4544.44
663.55	4650.94
663.74	4644.79
663.93	4384.70
664.12	4601.79
664.30	4583.35
664.49	4556.73
664.68	4454.33
664.87	4411.32
665.05	4429.76
665.24	4394.94
665.43	4495.29
665.62	4368.32
665.80	4319.17
665.99	4302.78
666.18	4331.45
666.37	4331.45
666.55	4186.05
666.74	4136.90
666.93	4401.08
667.11	4179.90
667.30	4044.74
667.49	4323.26
667.68	4192.19
667.86	4143.04
668.05	4222.91
668.24	4151.23
668.43	4270.01
668.61	4077.51
668.80	4159.42
668.99	4255.68
669.17	4224.96
669.36	4163.52
669.55	4085.70
669.74	4054.98
669.92	4100.03
670.11	4122.56
670.30	4179.90
670.48	4140.99
670.67	4038.59
670.86	3956.68
671.05	4085.70
671.23	4063.17
671.42	4040.64
671.61	4073.41
671.79	4071.36
671.98	4034.50
672.17	4032.45
672.35	4190.14
672.54	4020.16
672.73	3948.48
672.91	4083.65
673.10	3934.15
673.29	4014.02
673.48	3872.71
673.66	4038.59
673.85	4085.70
674.04	3885.00
674.22	4032.45
674.41	3999.68
674.60	3964.87
674.78	3940.29
674.97	4208.58
675.16	3917.76
675.34	4044.74
675.53	4147.14
675.72	4140.99
675.90	4122.56
676.09	3962.82
676.28	4073.41
676.46	4227.01
676.65	4036.55
676.84	4011.97
677.02	4224.96
677.21	4032.45
677.40	4081.60
677.58	4024.26
677.77	4059.07
677.95	4046.79
678.14	3983.30
678.33	4032.45
678.51	3975.11
678.70	4145.09
678.89	4097.99
679.07	4151.23
679.26	4128.70
679.45	4270.01
679.63	4210.62
679.82	4315.07
680.01	4184.00
680.19	4181.95
680.38	4337.60
680.56	4173.76
680.75	4265.92
680.94	4251.58
681.12	4319.17
681.31	4276.16
681.50	4331.45
681.68	4265.92
681.87	4472.76
682.05	4409.28
682.24	4491.20
682.43	4401.08
682.61	4657.08
682.80	4495.29
682.98	4444.09
683.17	4511.68
683.36	4487.10
683.54	4667.32
683.73	4704.18
683.91	4763.58
684.10	4763.58
684.29	4726.71
684.47	4687.80
684.66	4671.42
684.84	4612.03
685.03	4812.73
685.22	4753.34
685.40	4818.87
685.59	4941.75
685.77	5152.69
685.96	5169.07
686.15	4984.76
686.33	4878.26
686.52	5068.72
686.70	5126.07
686.89	4978.61
687.07	5150.64
687.26	5136.31
687.45	5054.39
687.63	5181.36
687.82	5242.80
688.00	5457.84
688.19	5341.10
688.37	5294.00
688.56	5390.25
688.75	5515.18
688.93	5529.52
689.12	5533.61
689.30	5527.47
689.49	5470.12
689.67	5586.86
689.86	5742.50
690.04	5658.54
690.23	5631.91
690.42	5740.46
690.60	5932.97
690.79	5816.23
690.97	5998.50
691.16	5875.62
691.34	6205.35
691.53	5990.31
691.71	6127.52
691.90	6129.57
692.08	5935.01
692.27	6082.47
692.45	6090.66
692.64	6207.39
692.83	6199.20
693.01	6356.90
693.20	6289.31
693.38	6326.18
693.57	6449.05
693.75	6256.54
693.94	6305.70
694.12	6432.67
694.31	6414.24
694.49	6553.50
694.68	6412.19
694.86	6524.83
695.05	6492.06
695.23	6424.48
695.42	6727.58
695.60	6549.40
695.79	6498.20
695.97	6586.27
696.16	6872.98
696.34	6688.67
696.53	6893.46
696.71	6795.16
696.90	6868.89
697.08	6963.09
697.27	7102.36
697.45	6944.66
697.64	6965.14
697.82	6860.70
698.01	7008.15
698.19	7141.27
698.38	7102.36
698.56	7167.89
698.75	7174.03
698.93	7118.74
699.12	7282.58
699.30	7266.19
699.49	7337.87
699.67	7149.46
699.86	7217.04
700.04	7305.10
700.22	7425.93
700.41	7167.89
700.59	7434.13
700.78	7540.62
700.96	7567.24
701.15	7370.64
701.33	7401.36
701.52	7417.74
701.70	7395.22
701.89	7561.10
702.07	7503.76
702.26	7550.86
702.44	7608.20
702.62	7614.35
702.81	7505.81
702.99	7610.25
703.18	7546.76
703.36	7544.72
703.55	7856.01
703.73	7878.54
703.92	7651.21
704.10	7690.12
704.28	7759.75
704.47	7731.08
704.65	7606.16
704.84	7851.91
705.02	7616.40
705.21	7583.63
705.39	7884.68
705.57	7808.90
705.76	7888.78
705.94	8050.57
706.13	7903.11
706.31	7931.78
706.50	7749.51
706.68	7841.67
706.86	7939.97
707.05	7841.67
707.23	8048.52
707.42	8032.13
707.60	7899.02
707.78	8050.57
707.97	7993.22
708.15	8023.94
708.34	7913.35
708.52	7870.34
708.70	7989.13
708.89	7962.50
709.07	7899.02
709.26	7792.52
709.44	7978.89
709.62	7882.63
709.81	7911.30
709.99	7985.03
710.18	8212.35
710.36	7923.59
710.54	8212.35
710.73	8071.04
710.91	8105.86
711.10	8273.79
711.28	8050.57
711.46	8206.21
711.65	8214.40
711.83	8114.05
712.01	8333.18
712.20	8228.74
712.38	8126.34
712.57	8200.07
712.75	8075.14
712.93	8204.16
713.12	8167.30
713.30	8171.40
713.48	8077.19
713.67	8134.53
713.85	8206.21
714.03	8394.62
714.22	8173.44
714.40	8259.46
714.58	8120.20
714.77	8351.62
714.95	8277.89
715.14	8140.68
715.32	8292.23
715.50	8284.03
715.69	8298.37
715.87	8220.55
716.05	8368.00
716.24	8183.68
716.42	8052.61
716.60	8079.24
716.79	8195.97
716.97	8136.58
717.15	8228.74
717.34	8249.22
717.52	8368.00
717.70	8261.51
717.89	8157.06
718.07	8273.79
718.25	8148.87
718.44	8163.20
718.62	8028.04
718.80	8142.72
718.98	8042.37
719.17	8136.58
719.35	8255.36
719.53	8120.20
719.72	8216.45
719.90	8380.29
720.08	8181.64
720.27	8017.80
720.45	8218.50
720.63	8179.59
720.82	8148.87
721.00	8017.80
721.18	8230.79
721.36	7948.17
721.55	8198.02
721.73	8183.68
721.91	8099.72
722.10	8089.48
722.28	7989.13
722.46	7966.60
722.64	8021.89
722.83	7927.69
723.01	8091.52
723.19	8040.33
723.38	7876.49
723.56	8218.50
723.74	8015.75
723.92	8075.14
724.11	8038.28
724.29	8054.66
724.47	8069.00
724.65	8083.33
724.84	8025.99
725.02	8124.29
725.20	8247.17
725.39	7823.24
725.57	8163.20
725.75	8069.00
725.93	8150.92
726.12	8103.81
726.30	8040.33
726.48	8126.34
726.66	7884.68
726.85	7964.55
727.03	8015.75
727.21	7935.88
727.39	7911.30
727.58	7915.40
727.76	7868.30
727.94	7794.57
728.12	8054.66
728.30	7894.92
728.49	7800.71
728.67	7878.54
728.85	7772.04
729.03	7761.80
729.22	8054.66
729.40	7808.90
729.58	7763.85
729.76	7993.22
729.95	7892.87
730.13	7716.75
730.31	7974.79
730.49	8052.61
730.67	7802.76
730.86	7669.64
731.04	7858.06
731.22	7632.78
731.40	7808.90
731.58	7901.06
731.77	7853.96
731.95	7591.82
732.13	7716.75
732.31	7624.59
732.50	7763.85
732.68	7638.92
732.86	7714.70
733.04	7612.30
733.22	7491.47
733.40	7532.43
733.59	7468.94
733.77	7567.24
733.95	7643.02
734.13	7511.95
734.31	7681.93
734.50	7421.84
734.68	7765.90
734.86	7503.76
735.04	7587.72
735.22	7296.91
735.41	7548.81
735.59	7487.37
735.77	7395.22
735.95	7466.89
736.13	7391.12
736.31	7468.94
736.50	7427.98
736.68	7581.58
736.86	7282.58
737.04	7235.47
737.22	7341.97
737.40	7335.82
737.59	7288.72
737.77	7413.65
737.95	7247.76
738.13	7194.51
738.31	7307.15
738.49	7149.46
738.67	7178.13
738.86	7264.15
739.04	7100.31
739.22	7319.44
739.40	7155.60
739.58	7231.38
739.76	7131.03
739.94	7038.87
740.13	7284.62
740.31	7114.64
740.49	7110.55
740.67	6940.57
740.85	7061.40
741.03	6963.09
741.21	7081.88
741.39	6969.24
741.58	6868.89
741.76	7096.21
741.94	6885.27
742.12	7026.58
742.30	6911.89
742.48	7165.84
742.66	6829.98
742.84	6952.85
743.03	6772.63
743.21	6911.89
743.39	6934.42
743.57	6827.93
743.75	6995.86
743.93	6748.06
744.11	6856.60
744.29	6752.15
744.47	6731.67
744.65	6748.06
744.84	6705.05
745.02	6645.66
745.20	6612.89
745.38	6526.88
745.56	6422.43
745.74	6492.06
745.92	6594.46
746.10	6619.04
746.28	6426.53
746.46	6518.68
746.64	6453.15
746.82	6490.01
747.01	6328.22
747.19	6272.93
747.37	6549.40
747.55	6463.39
747.73	6543.26
747.91	6354.85
748.09	6342.56
748.27	6487.96
748.45	6313.89
748.63	6166.43
748.81	6281.12
748.99	6563.74
749.17	6498.20
749.35	6246.30
749.53	6191.01
749.72	6244.26
749.90	6068.13
750.08	6338.46
750.26	6231.97
750.44	6186.91
750.62	6262.69
750.80	6055.84
750.98	6117.28
751.16	6080.42
751.34	6223.78
751.52	6154.15
751.70	6037.41
751.88	6178.72
752.06	6213.54
752.24	6053.80
752.42	6027.17
752.60	6090.66
752.78	6061.99
752.96	5967.78
753.14	5812.14
753.32	6150.05
753.50	6014.88
753.68	6076.32
753.86	5961.64
754.04	5924.77
754.22	6072.23
754.40	6004.64
754.58	5963.68
754.76	6078.37
754.94	5988.26
755.12	6014.88
755.30	5914.53
755.48	5932.97
755.66	6037.41
755.84	5871.53
756.02	5871.53
756.20	5736.36
756.38	5978.02
756.56	5844.90
756.74	5777.32
756.92	6006.69
757.10	5728.17
757.28	5810.09
757.46	5865.38
757.64	5830.57
757.82	5810.09
758.00	5738.41
758.18	5814.18
758.36	5719.98
758.54	5926.82
758.72	5892.01
758.90	5799.85
759.08	5742.50
759.26	5728.17
759.44	5660.59
759.62	5902.25
759.80	5783.46
759.98	5724.07
760.16	5701.54
760.34	5726.12
760.52	5789.61
760.70	5666.73
760.88	5593.00
761.06	5461.93
761.24	5619.63
761.42	5633.96
761.60	5631.91
761.77	5572.52
761.95	5676.97
762.13	5746.60
762.31	5613.48
762.49	5564.33
762.67	5584.81
762.85	5478.32
763.03	5453.74
763.21	5701.54
763.39	5375.92
763.57	5560.24
763.75	5523.37
763.93	5691.31
764.11	5341.10
764.29	5377.97
764.46	5281.71
764.64	5504.94
764.82	5279.66
765.00	5521.32
765.18	5511.08
765.36	5294.00
765.54	5400.49
765.72	5377.97
765.90	5425.07
766.08	5347.25
766.26	5267.38
766.44	5337.01
766.61	5195.70
766.79	5132.21
766.97	5353.39
767.15	5173.17
767.33	5169.07
767.51	5146.55
767.69	5449.64
767.87	5242.80
768.05	5099.44
768.22	5183.41
768.40	5328.81
768.58	5240.75
768.76	5115.83
768.94	5177.26
769.12	4911.03
769.30	4970.42
769.48	4968.37
769.66	4995.00
769.83	4931.51
770.01	4890.55
770.19	4997.04
770.37	5058.48
770.55	4847.54
770.73	4913.08
770.91	4900.79
771.09	4978.61
771.26	4825.01
771.44	4962.23
771.62	4892.60
771.80	4839.35
771.98	4898.74
772.16	4902.84
772.34	4806.58
772.51	4765.62
772.69	4964.28
772.87	4814.77
773.05	4800.44
773.23	4820.92
773.41	4693.94
773.58	4753.34
773.76	4728.76
773.94	4808.63
774.12	4769.72
774.30	4777.91
774.48	4786.10
774.65	4601.79
774.83	4769.72
775.01	4495.29
775.19	4616.12
775.37	4646.84
775.55	4538.30
775.72	4765.62
775.90	4628.41
776.08	4601.79
776.26	4685.75
776.44	4609.98
776.61	4517.82
776.79	4523.96
776.97	4462.52
777.15	4474.81
777.33	4523.96
777.51	4368.32
777.68	4509.63
777.86	4446.14
778.04	4407.23
778.22	4374.46
778.40	4485.05
778.57	4235.20
778.75	4376.51
778.93	4388.80
779.11	4384.70
779.29	4519.87
779.46	4241.34
779.64	4257.73
779.82	4382.65
780.00	4257.73
780.17	4274.11
780.35	4241.34
780.53	4335.55
780.71	4388.80
780.89	4454.33
781.06	4132.80
781.24	4245.44
781.42	4306.88
781.60	4319.17
781.77	4251.58
781.95	4411.32
782.13	4261.82
782.31	4265.92
782.48	4151.23
782.66	4259.78
782.84	4241.34
783.02	4239.30
783.19	4149.18
783.37	4110.27
783.55	4171.71
783.73	4069.31
783.90	4169.66
784.08	4224.96
784.26	4229.06
784.44	3960.77
784.61	4177.86
784.79	4100.03
784.97	4032.45
785.15	4186.05
785.32	3995.59
785.50	4122.56
785.68	4087.75
785.86	4061.12
786.03	4100.03
786.21	4153.28
786.39	3971.01
786.57	4014.02
786.74	4032.45
786.92	4063.17
787.10	4118.47
787.27	3860.42
787.45	3866.56
787.63	4169.66
787.81	3946.44
787.98	3989.44
788.16	3891.14
788.34	4081.60
788.51	4024.26
788.69	3971.01
788.87	3837.89
789.04	4091.84
789.22	3973.06
789.40	3897.28
789.58	3739.59
789.75	3913.67
789.93	3950.53
790.11	3956.68
790.28	3796.93
790.46	3971.01
790.64	3893.19
790.81	3688.39
790.99	4022.21
791.17	3889.09
791.34	3850.18
791.52	3676.10
791.70	3788.74
791.87	3821.51
792.05	3921.86
792.23	3663.82
792.40	3774.41
792.58	3686.34
792.76	3801.03
792.93	3844.04
793.11	3723.21
793.29	3889.09
793.46	3856.33
793.64	3780.55
793.82	3749.83
793.99	3768.26
794.17	3561.42
794.35	3602.38
794.52	3780.55
794.70	3774.41
794.88	3934.15
795.05	3788.74
795.23	3545.03
795.41	3700.68
795.58	3657.67
795.76	3614.66
795.94	3477.45
796.11	3784.65
796.29	3590.09
796.46	3823.56
796.64	3612.62
796.82	3637.19
796.99	3626.95
797.17	3561.42
797.35	3612.62
797.52	3524.55
797.70	3715.02
797.87	3692.49
798.05	3721.16
798.23	3461.07
798.40	3641.29
798.58	3538.89
798.76	3547.08
798.93	3717.06
799.11	3616.71
799.28	3573.71
799.46	3583.95
799.64	3499.98
799.81	3538.89
799.99	3516.36
800.16	3547.08
800.34	3459.02
800.52	3659.72
800.69	3463.12
800.87	3536.84
801.04	3600.33
801.22	3483.59
801.39	3536.84
801.57	3542.99
801.75	3358.67
801.92	3567.56
802.10	3436.49
802.27	3438.54
802.45	3565.51
802.63	3508.17
802.80	3534.79
802.98	3473.36
803.15	3493.83
803.33	3487.69
803.50	3483.59
803.68	3411.92
803.86	3416.01
804.03	3454.92
804.21	3448.78
804.38	3430.35
804.56	3446.73
804.73	3479.50
804.91	3325.90
805.08	3350.48
805.26	3432.40
805.44	3399.63
805.61	3407.82
805.79	3368.91
805.96	3307.47
806.14	3291.09
806.31	3282.89
806.49	3397.58
806.66	3428.30
806.84	3420.11
807.01	3497.93
807.19	3280.85
807.36	3268.56
807.54	3340.24
807.71	3270.61
807.89	3172.30
808.07	3323.85
808.24	3180.50
808.42	3284.94
808.59	3258.32
808.77	3246.03
808.94	3348.43
809.12	3272.65
809.29	3338.19
809.47	3223.50
809.64	3266.51
809.82	3129.30
809.99	3297.23
810.17	3180.50
810.34	3270.61
810.52	3100.62
810.69	3184.59
810.87	3198.93
811.04	3119.06
811.22	3370.96
811.39	3168.21
811.57	3200.98
811.74	3121.10
811.92	3211.22
812.09	3297.23
812.27	3211.22
812.44	3184.59
812.62	3190.74
812.79	3282.89
812.97	3149.78
813.14	3157.97
813.31	2914.26
813.49	3067.86
813.66	3155.92
813.84	2981.84
814.01	2979.79
814.19	3192.78
814.36	3190.74
814.54	3080.14
814.71	3110.86
814.89	3127.25
815.06	3092.43
815.24	3108.82
815.41	3133.39
815.58	3047.38
815.76	3200.98
815.93	3143.63
816.11	3174.35
816.28	2916.31
816.46	3086.29
816.63	3104.72
816.81	3084.24
816.98	3090.38
817.15	2959.31
817.33	3110.86
817.50	3043.28
817.68	2734.04
817.85	2967.51
818.03	2949.08
818.20	2936.79
818.37	2936.79
818.55	2994.13
818.72	2928.60
818.90	2967.51
819.07	2990.03
819.25	3078.10
819.42	2953.17
819.59	2744.28
819.77	2854.87
819.94	3045.33
820.12	3026.90
820.29	3000.27
820.46	2887.64
820.64	3033.04
820.81	2805.72
820.99	2942.93
821.16	2721.75
821.33	2885.59
821.51	2951.12
821.68	2834.39
821.86	3022.80
822.03	2795.48
822.20	2906.07
822.38	2848.72
822.55	2934.74
822.73	2725.85
822.90	2877.40
823.07	2785.24
823.25	2897.88
823.42	2736.09
823.59	2846.68
823.77	2785.24
823.94	2856.92
824.12	2754.52
824.29	2721.75
824.46	2742.23
824.64	2852.82
824.81	2688.98
824.98	2734.04
825.16	2768.85
825.33	2633.69
825.50	2725.85
825.68	2756.57
825.85	2777.05
826.03	2658.26
826.20	2746.33
826.37	2815.96
826.55	2811.86
826.72	2824.15
826.89	2707.41
827.07	2789.33
827.24	2600.92
827.41	2697.17
827.59	2678.74
827.76	2734.04
827.93	2713.56
828.11	2586.58
828.28	2684.89
828.45	2772.95
828.63	2693.08
828.80	2699.22
828.97	2660.31
829.15	2713.56
829.32	2619.35
829.49	2635.74
829.67	2590.68
829.84	2564.06
830.01	2621.40
830.18	2752.47
830.36	2662.36
830.53	2592.73
830.70	2660.31
830.88	2545.63
831.05	2611.16
831.22	2760.66
831.40	2486.23
831.57	2471.90
831.74	2711.51
831.91	2635.74
832.09	2578.39
832.26	2545.63
832.43	2617.30
832.61	2508.76
832.78	2562.01
832.95	2484.19
833.13	2639.83
833.30	2512.86
833.47	2617.30
833.64	2533.34
833.82	2617.30
833.99	2430.94
834.16	2467.80
834.33	2512.86
834.51	2488.28
834.68	2566.10
834.85	2510.81
835.03	2494.43
835.20	2375.64
835.37	2443.23
835.54	2340.83
835.72	2576.34
835.89	2387.93
836.06	2389.98
836.23	2449.37
836.41	2359.26
836.58	2379.74
836.75	2510.81
836.92	2379.74
837.10	2367.45
837.27	2488.28
837.44	2428.89
837.61	2310.11
837.78	2430.94
837.96	2412.51
838.13	2412.51
838.30	2260.96
838.47	2416.60
838.65	2226.14
838.82	2353.12
838.99	2377.69
839.16	2295.77
839.34	2258.91
839.51	2414.56
839.68	2416.60
839.85	2412.51
840.02	2195.42
840.20	2164.70
840.37	2359.26
840.54	2324.44
840.71	2521.05
840.88	2232.29
841.06	2301.92
841.23	2424.80
841.40	2355.16
841.57	2236.38
841.74	2084.83
841.92	2234.33
842.09	2238.43
842.26	2324.44
842.43	2179.04
842.60	2176.99
842.78	2217.95
842.95	2232.29
843.12	2332.64
843.29	2174.94
843.46	2220.00
843.64	2306.01
843.81	2197.47
843.98	2275.29
844.15	2385.88
844.32	2136.03
844.49	2138.08
844.67	2224.09
844.84	2283.49
845.01	2191.33
845.18	2197.47
845.35	2123.74
845.52	2078.69
845.70	2289.63
845.87	2191.33
846.04	2176.99
846.21	2047.97
846.38	2265.05
846.55	2129.89
846.72	2150.37
846.90	2193.37
847.07	2045.92
847.24	2193.37
847.41	2150.37
847.58	2099.17
847.75	2072.54
847.92	2080.74
848.10	2183.13
848.27	2009.06
848.44	2179.04
848.61	2070.50
848.78	2117.60
848.95	2041.82
849.12	2131.94
849.29	2021.35
849.47	2166.75
849.64	2029.54
849.81	2133.98
849.98	2138.08
850.15	2033.63
850.32	2009.06
850.49	1966.05
850.66	1918.95
850.84	2095.07
851.01	2000.87
851.18	1998.82
851.35	2004.96
851.52	1968.10
851.69	2095.07
851.86	2172.89
852.03	2041.82
852.20	1871.84
852.37	1959.91
852.54	2050.02
852.72	1978.34
852.89	2078.69
853.06	2060.26
853.23	2027.49
853.40	1986.53
853.57	1996.77
853.74	1953.76
853.91	1966.05
854.08	1853.41
854.25	1867.75
854.42	2037.73
854.59	2027.49
854.76	2027.49
854.94	1953.76
855.11	1951.71
855.28	1890.28
855.45	1990.63
855.62	1935.33
855.79	1896.42
855.96	1912.80
856.13	1918.95
856.30	1757.16
856.47	1939.43
856.64	1927.14
856.81	1898.47
856.98	1820.64
857.15	1914.85
857.32	1744.87
857.49	1953.76
857.66	1738.73
857.83	1834.98
858.00	1923.04
858.17	1945.57
858.35	1804.26
858.52	1873.89
858.69	1871.84
858.86	1740.77
859.03	1847.27
859.20	1873.89
859.37	1839.08
859.54	1886.18
859.71	1873.89
859.88	1810.40
860.05	1812.45
860.22	1861.60
860.39	1804.26
860.56	1837.03
860.73	1875.94
860.90	1826.79
861.07	1818.60
861.24	1789.92
861.41	1869.80
861.58	1712.10
861.75	1771.49
861.92	1822.69
862.09	1705.96
862.26	1697.77
862.43	1767.40
862.60	1845.22
862.77	1755.11
862.94	1708.01
863.11	1798.12
863.28	1894.37
863.45	1781.73
863.62	1738.73
863.79	1679.33
863.96	1814.50
864.13	1908.71
864.30	1681.38
864.46	1683.43
864.63	1789.92
864.80	1722.34
864.97	1843.17
865.14	1628.14
865.31	1671.14
865.48	1634.28
865.65	1779.68
865.82	1830.88
865.99	1820.64
866.16	1701.86
866.33	1712.10
866.50	1728.49
866.67	1828.84
866.84	1679.33
867.01	1820.64
867.18	1791.97
867.35	1906.66
867.52	1847.27
867.69	1732.58
867.85	1605.61
868.02	1726.44
868.19	1798.12
868.36	1583.08
868.53	1716.20
868.70	1791.97
868.87	1701.86
869.04	1652.71
869.21	1708.01
869.38	1720.29
869.55	1802.21
869.72	1675.24
869.89	1552.36
870.05	1591.27
870.22	1621.99
870.39	1607.66
870.56	1742.82
870.73	1644.52
870.90	1802.21
871.07	1744.87
871.24	1705.96
871.41	1650.66
871.58	1660.90
871.74	1583.08
871.91	1593.32
872.08	1708.01
872.25	1583.08
872.42	1603.56
872.59	1591.27
872.76	1691.62
872.93	1716.20
873.10	1601.51
873.26	1587.18
873.43	1619.94
873.60	1634.28
873.77	1540.07
873.94	1572.84
874.11	1757.16
874.28	1722.34
874.45	1705.96
874.61	1611.75
874.78	1650.66
874.95	1660.90
875.12	1613.80
875.29	1640.42
875.46	1589.22
875.63	1677.29
875.79	1593.32
875.96	1554.41
876.13	1615.85
876.30	1578.98
876.47	1538.02
876.64	1640.42
876.80	1535.98
876.97	1570.79
877.14	1632.23
877.31	1669.09
877.48	1654.76
877.65	1562.60
877.81	1558.50
877.98	1470.44
878.15	1630.18
878.32	1535.98
878.49	1656.81
878.66	1654.76
878.82	1691.62
878.99	1642.47
879.16	1431.53
879.33	1492.97
879.50	1650.66
879.67	1683.43
879.83	1695.72
880.00	1550.31
880.17	1538.02
880.34	1531.88
880.51	1456.11
880.67	1587.18
880.84	1624.04
881.01	1642.47
881.18	1636.33
881.35	1542.12
881.51	1484.78
881.68	1683.43
881.85	1667.05
882.02	1587.18
882.18	1570.79
882.35	1554.41
882.52	1509.35
882.69	1495.02
882.86	1568.74
883.02	1507.30
883.19	1478.63
883.36	1632.23
883.53	1509.35
883.69	1495.02
883.86	1507.30
884.03	1538.02
884.20	1531.88
884.36	1632.23
884.53	1544.17
884.70	1566.70
884.87	1456.11
885.04	1638.38
885.20	1538.02
885.37	1517.54
885.54	1566.70
885.71	1492.97
885.87	1505.26
886.04	1468.39
886.21	1458.15
886.38	1591.27
886.54	1531.88
886.71	1540.07
886.88	1591.27
>>>>>End Processed Spectral Data<<<<<
