SpectraSuite Data File
++++++++++++++++++++++++++++++++++++
Date: Fri May 01 10:30:40 EST 2015
User: ocean
Dark Spectrum Present: No
Reference Spectrum Present: No
Number of Sampled Component Spectra: 1
Spectrometers: USB4E02642
Integration Time (usec): 150000 (USB4E02642)
Spectra Averaged: 1 (USB4E02642)
Boxcar Smoothing: 0 (USB4E02642)
Correct for Electrical Dark: No (USB4E02642)
Strobe/Lamp Enabled: No (USB4E02642)
Correct for Detector Non-linearity: No (USB4E02642)
Correct for Stray Light: No (USB4E02642)
Number of Pixels in Processed Spectrum: 3648
>>>>>Begin Processed Spectral Data<<<<<
179.22	1054.70
179.43	1054.70
179.65	1054.70
179.86	1017.84
180.08	1009.65
180.29	1329.13
180.51	1275.88
180.72	1374.19
180.94	1294.32
181.15	1232.88
181.37	1363.95
181.58	1191.92
181.80	1304.56
182.01	1259.50
182.23	1273.84
182.44	1308.65
182.66	1216.49
182.87	1273.84
183.09	1226.73
183.30	1255.40
183.52	1273.84
183.73	1271.79
183.95	1363.95
184.16	1210.35
184.38	1349.61
184.59	1314.80
184.81	1251.31
185.02	1296.36
185.24	1273.84
185.45	1353.71
185.67	1253.36
185.88	1353.71
186.10	1171.44
186.31	1292.27
186.53	1204.21
186.74	1236.97
186.96	1255.40
187.17	1300.46
187.39	1247.21
187.60	1267.69
187.81	1384.43
188.03	1259.50
188.24	1277.93
188.46	1300.46
188.67	1427.43
188.89	1239.02
189.10	1384.43
189.32	1347.56
189.53	1292.27
189.75	1347.56
189.96	1468.39
190.18	1349.61
190.39	1279.98
190.61	1310.70
190.82	1198.06
191.04	1396.71
191.25	1423.34
191.46	1380.33
191.68	1300.46
191.89	1339.37
192.11	1300.46
192.32	1308.65
192.54	1284.08
192.75	1300.46
192.97	1347.56
193.18	1292.27
193.40	1312.75
193.61	1306.60
193.83	1347.56
194.04	1304.56
194.25	1363.95
194.47	1376.24
194.68	1292.27
194.90	1265.64
195.11	1376.24
195.33	1259.50
195.54	1382.38
195.76	1386.47
195.97	1331.18
196.18	1273.84
196.40	1409.00
196.61	1292.27
196.83	1325.04
197.04	1255.40
197.26	1437.67
197.47	1341.42
197.69	1320.94
197.90	1308.65
198.11	1284.08
198.33	1318.89
198.54	1329.13
198.76	1419.24
198.97	1333.23
199.19	1292.27
199.40	1300.46
199.61	1196.01
199.83	1302.51
200.04	1308.65
200.26	1191.92
200.47	1282.03
200.69	1265.64
200.90	1339.37
201.11	1312.75
201.33	1169.39
201.54	1390.57
201.76	1249.26
201.97	1253.36
202.19	1343.47
202.40	1431.53
202.61	1296.36
202.83	1282.03
203.04	1368.04
203.26	1349.61
203.47	1331.18
203.68	1445.87
203.90	1292.27
204.11	1290.22
204.33	1269.74
204.54	1400.81
204.75	1327.08
204.97	1343.47
205.18	1255.40
205.40	1228.78
205.61	1271.79
205.83	1411.05
206.04	1294.32
206.25	1292.27
206.47	1355.76
206.68	1374.19
206.90	1302.51
207.11	1234.93
207.32	1218.54
207.54	1286.12
207.75	1378.28
207.97	1308.65
208.18	1277.93
208.39	1226.73
208.61	1275.88
208.82	1384.43
209.03	1363.95
209.25	1443.82
209.46	1353.71
209.68	1292.27
209.89	1288.17
210.10	1255.40
210.32	1333.23
210.53	1378.28
210.75	1374.19
210.96	1193.97
211.17	1243.12
211.39	1193.97
211.60	1308.65
211.82	1226.73
212.03	1310.70
212.24	1282.03
212.46	1306.60
212.67	1363.95
212.88	1269.74
213.10	1378.28
213.31	1322.99
213.53	1378.28
213.74	1304.56
213.95	1308.65
214.17	1378.28
214.38	1353.71
214.59	1296.36
214.81	1427.43
215.02	1353.71
215.23	1292.27
215.45	1277.93
215.66	1284.08
215.88	1372.14
216.09	1286.12
216.30	1312.75
216.52	1312.75
216.73	1228.78
216.94	1234.93
217.16	1372.14
217.37	1341.42
217.58	1327.08
217.80	1529.83
218.01	1327.08
218.22	1347.56
218.44	1230.83
218.65	1370.09
218.87	1277.93
219.08	1353.71
219.29	1322.99
219.51	1439.72
219.72	1366.00
219.93	1337.32
220.15	1468.39
220.36	1329.13
220.57	1271.79
220.79	1261.55
221.00	1267.69
221.21	1396.71
221.43	1386.47
221.64	1300.46
221.85	1296.36
222.07	1300.46
222.28	1353.71
222.49	1234.93
222.71	1212.40
222.92	1279.98
223.13	1144.81
223.35	1255.40
223.56	1374.19
223.77	1284.08
223.99	1259.50
224.20	1382.38
224.41	1294.32
224.63	1409.00
224.84	1265.64
225.05	1464.30
225.27	1411.05
225.48	1458.15
225.69	1269.74
225.91	1265.64
226.12	1316.84
226.33	1513.45
226.55	1259.50
226.76	1234.93
226.97	1282.03
227.19	1261.55
227.40	1226.73
227.61	1296.36
227.82	1337.32
228.04	1204.21
228.25	1228.78
228.46	1249.26
228.68	1329.13
228.89	1273.84
229.10	1257.45
229.32	1372.14
229.53	1310.70
229.74	1388.52
229.96	1259.50
230.17	1402.86
230.38	1470.44
230.59	1355.76
230.81	1308.65
231.02	1212.40
231.23	1208.30
231.45	1394.67
231.66	1341.42
231.87	1390.57
232.09	1368.04
232.30	1273.84
232.51	1382.38
232.72	1277.93
232.94	1191.92
233.15	1458.15
233.36	1185.77
233.58	1251.31
233.79	1273.84
234.00	1341.42
234.21	1329.13
234.43	1333.23
234.64	1310.70
234.85	1322.99
235.07	1290.22
235.28	1298.41
235.49	1257.45
235.70	1300.46
235.92	1376.24
236.13	1318.89
236.34	1320.94
236.56	1142.77
236.77	1279.98
236.98	1327.08
237.19	1331.18
237.41	1318.89
237.62	1392.62
237.83	1433.58
238.04	1402.86
238.26	1312.75
238.47	1357.80
238.68	1419.24
238.89	1261.55
239.11	1396.71
239.32	1347.56
239.53	1314.80
239.75	1216.49
239.96	1230.83
240.17	1251.31
240.38	1271.79
240.60	1296.36
240.81	1247.21
241.02	1345.52
241.23	1296.36
241.45	1374.19
241.66	1214.45
241.87	1327.08
242.08	1316.84
242.30	1204.21
242.51	1339.37
242.72	1267.69
242.93	1245.16
243.15	1380.33
243.36	1275.88
243.57	1378.28
243.78	1380.33
244.00	1329.13
244.21	1234.93
244.42	1263.60
244.63	1390.57
244.85	1343.47
245.06	1259.50
245.27	1363.95
245.48	1218.54
245.70	1368.04
245.91	1464.30
246.12	1353.71
246.33	1316.84
246.54	1443.82
246.76	1318.89
246.97	1310.70
247.18	1333.23
247.39	1269.74
247.61	1425.39
247.82	1271.79
248.03	1314.80
248.24	1382.38
248.45	1378.28
248.67	1349.61
248.88	1351.66
249.09	1325.04
249.30	1322.99
249.52	1357.80
249.73	1363.95
249.94	1261.55
250.15	1314.80
250.36	1304.56
250.58	1505.26
250.79	1296.36
251.00	1277.93
251.21	1347.56
251.43	1267.69
251.64	1468.39
251.85	1284.08
252.06	1400.81
252.27	1368.04
252.49	1372.14
252.70	1284.08
252.91	1300.46
253.12	1282.03
253.33	1402.86
253.55	1302.51
253.76	1296.36
253.97	1275.88
254.18	1224.69
254.39	1325.04
254.61	1343.47
254.82	1333.23
255.03	1302.51
255.24	1296.36
255.45	1374.19
255.67	1265.64
255.88	1241.07
256.09	1325.04
256.30	1267.69
256.51	1366.00
256.73	1353.71
256.94	1261.55
257.15	1490.92
257.36	1243.12
257.57	1361.90
257.78	1277.93
258.00	1312.75
258.21	1355.76
258.42	1282.03
258.63	1273.84
258.84	1226.73
259.06	1322.99
259.27	1337.32
259.48	1292.27
259.69	1349.61
259.90	1169.39
260.11	1454.06
260.33	1259.50
260.54	1279.98
260.75	1355.76
260.96	1314.80
261.17	1413.10
261.38	1454.06
261.60	1355.76
261.81	1298.41
262.02	1302.51
262.23	1312.75
262.44	1327.08
262.65	1370.09
262.87	1286.12
263.08	1380.33
263.29	1343.47
263.50	1306.60
263.71	1279.98
263.92	1345.52
264.13	1327.08
264.35	1325.04
264.56	1363.95
264.77	1366.00
264.98	1255.40
265.19	1216.49
265.40	1302.51
265.62	1368.04
265.83	1353.71
266.04	1411.05
266.25	1439.72
266.46	1312.75
266.67	1331.18
266.88	1327.08
267.10	1230.83
267.31	1374.19
267.52	1306.60
267.73	1255.40
267.94	1261.55
268.15	1214.45
268.36	1241.07
268.57	1376.24
268.79	1345.52
269.00	1335.28
269.21	1228.78
269.42	1329.13
269.63	1312.75
269.84	1343.47
270.05	1210.35
270.27	1302.51
270.48	1251.31
270.69	1247.21
270.90	1222.64
271.11	1382.38
271.32	1396.71
271.53	1216.49
271.74	1279.98
271.96	1306.60
272.17	1308.65
272.38	1331.18
272.59	1183.73
272.80	1269.74
273.01	1275.88
273.22	1255.40
273.43	1304.56
273.64	1175.53
273.86	1445.87
274.07	1355.76
274.28	1284.08
274.49	1292.27
274.70	1368.04
274.91	1302.51
275.12	1380.33
275.33	1241.07
275.54	1284.08
275.76	1335.28
275.97	1234.93
276.18	1230.83
276.39	1349.61
276.60	1316.84
276.81	1312.75
277.02	1398.76
277.23	1263.60
277.44	1345.52
277.65	1273.84
277.86	1288.17
278.08	1353.71
278.29	1341.42
278.50	1425.39
278.71	1312.75
278.92	1263.60
279.13	1214.45
279.34	1267.69
279.55	1279.98
279.76	1374.19
279.97	1236.97
280.18	1478.63
280.40	1347.56
280.61	1255.40
280.82	1241.07
281.03	1275.88
281.24	1404.91
281.45	1355.76
281.66	1142.77
281.87	1277.93
282.08	1294.32
282.29	1404.91
282.50	1249.26
282.71	1249.26
282.92	1406.95
283.13	1421.29
283.35	1316.84
283.56	1226.73
283.77	1239.02
283.98	1404.91
284.19	1306.60
284.40	1224.69
284.61	1271.79
284.82	1423.34
285.03	1431.53
285.24	1202.16
285.45	1279.98
285.66	1296.36
285.87	1372.14
286.08	1257.45
286.29	1312.75
286.50	1259.50
286.71	1239.02
286.93	1255.40
287.14	1253.36
287.35	1368.04
287.56	1208.30
287.77	1316.84
287.98	1335.28
288.19	1251.31
288.40	1269.74
288.61	1292.27
288.82	1345.52
289.03	1357.80
289.24	1361.90
289.45	1423.34
289.66	1239.02
289.87	1433.58
290.08	1191.92
290.29	1265.64
290.50	1386.47
290.71	1267.69
290.92	1445.87
291.13	1325.04
291.34	1357.80
291.55	1292.27
291.76	1204.21
291.97	1236.97
292.18	1361.90
292.39	1398.76
292.61	1427.43
292.82	1218.54
293.03	1527.78
293.24	1210.35
293.45	1191.92
293.66	1265.64
293.87	1316.84
294.08	1345.52
294.29	1247.21
294.50	1464.30
294.71	1454.06
294.92	1300.46
295.13	1304.56
295.34	1298.41
295.55	1208.30
295.76	1277.93
295.97	1333.23
296.18	1363.95
296.39	1310.70
296.60	1460.20
296.81	1224.69
297.02	1185.77
297.23	1447.91
297.44	1349.61
297.65	1396.71
297.86	1351.66
298.07	1220.59
298.28	1347.56
298.49	1259.50
298.70	1300.46
298.91	1310.70
299.12	1251.31
299.33	1163.25
299.54	1339.37
299.75	1292.27
299.96	1349.61
300.17	1359.85
300.38	1275.88
300.59	1189.87
300.80	1304.56
301.01	1312.75
301.22	1329.13
301.43	1413.10
301.64	1292.27
301.85	1243.12
302.06	1282.03
302.27	1271.79
302.48	1456.11
302.69	1251.31
302.89	1265.64
303.10	1335.28
303.31	1290.22
303.52	1282.03
303.73	1257.45
303.94	1243.12
304.15	1255.40
304.36	1265.64
304.57	1241.07
304.78	1413.10
304.99	1300.46
305.20	1191.92
305.41	1376.24
305.62	1347.56
305.83	1312.75
306.04	1181.68
306.25	1366.00
306.46	1294.32
306.67	1396.71
306.88	1226.73
307.09	1263.60
307.30	1257.45
307.51	1339.37
307.72	1282.03
307.93	1257.45
308.14	1241.07
308.35	1282.03
308.55	1314.80
308.76	1136.62
308.97	1261.55
309.18	1400.81
309.39	1325.04
309.60	1275.88
309.81	1394.67
310.02	1257.45
310.23	1189.87
310.44	1257.45
310.65	1372.14
310.86	1234.93
311.07	1413.10
311.28	1271.79
311.49	1310.70
311.70	1333.23
311.91	1261.55
312.11	1222.64
312.32	1329.13
312.53	1273.84
312.74	1316.84
312.95	1316.84
313.16	1374.19
313.37	1255.40
313.58	1222.64
313.79	1249.26
314.00	1329.13
314.21	1222.64
314.42	1196.01
314.63	1232.88
314.83	1329.13
315.04	1355.76
315.25	1394.67
315.46	1343.47
315.67	1261.55
315.88	1329.13
316.09	1386.47
316.30	1343.47
316.51	1341.42
316.72	1271.79
316.93	1212.40
317.13	1363.95
317.34	1249.26
317.55	1458.15
317.76	1159.15
317.97	1300.46
318.18	1427.43
318.39	1417.19
318.60	1329.13
318.81	1236.97
319.02	1378.28
319.23	1372.14
319.43	1271.79
319.64	1308.65
319.85	1236.97
320.06	1325.04
320.27	1345.52
320.48	1353.71
320.69	1284.08
320.90	1210.35
321.11	1386.47
321.31	1368.04
321.52	1337.32
321.73	1361.90
321.94	1329.13
322.15	1200.11
322.36	1517.54
322.57	1386.47
322.78	1220.59
322.98	1357.80
323.19	1339.37
323.40	1314.80
323.61	1325.04
323.82	1214.45
324.03	1214.45
324.24	1394.67
324.45	1351.66
324.65	1247.21
324.86	1322.99
325.07	1484.78
325.28	1234.93
325.49	1314.80
325.70	1361.90
325.91	1329.13
326.12	1271.79
326.32	1243.12
326.53	1300.46
326.74	1286.12
326.95	1322.99
327.16	1394.67
327.37	1443.82
327.58	1275.88
327.78	1265.64
327.99	1193.97
328.20	1325.04
328.41	1253.36
328.62	1325.04
328.83	1351.66
329.04	1167.34
329.24	1257.45
329.45	1193.97
329.66	1273.84
329.87	1331.18
330.08	1271.79
330.29	1282.03
330.49	1398.76
330.70	1218.54
330.91	1216.49
331.12	1359.85
331.33	1343.47
331.54	1349.61
331.74	1316.84
331.95	1234.93
332.16	1310.70
332.37	1343.47
332.58	1292.27
332.79	1339.37
332.99	1322.99
333.20	1345.52
333.41	1298.41
333.62	1349.61
333.83	1236.97
334.04	1279.98
334.24	1343.47
334.45	1191.92
334.66	1271.79
334.87	1331.18
335.08	1337.32
335.29	1236.97
335.49	1347.56
335.70	1347.56
335.91	1335.28
336.12	1445.87
336.33	1292.27
336.53	1296.36
336.74	1372.14
336.95	1320.94
337.16	1189.87
337.37	1357.80
337.57	1306.60
337.78	1345.52
337.99	1320.94
338.20	1312.75
338.41	1286.12
338.62	1245.16
338.82	1382.38
339.03	1251.31
339.24	1320.94
339.45	1292.27
339.65	1271.79
339.86	1210.35
340.07	1417.19
340.28	1349.61
340.49	1409.00
340.69	1214.45
340.90	1304.56
341.11	1325.04
341.32	1325.04
341.53	1210.35
341.73	1314.80
341.94	1292.27
342.15	1304.56
342.36	1392.62
342.57	1402.86
342.77	1284.08
342.98	1333.23
343.19	1271.79
343.40	1294.32
343.60	1411.05
343.81	1374.19
344.02	1310.70
344.23	1351.66
344.44	1196.01
344.64	1177.58
344.85	1431.53
345.06	1312.75
345.27	1218.54
345.47	1245.16
345.68	1353.71
345.89	1275.88
346.10	1427.43
346.30	1277.93
346.51	1339.37
346.72	1411.05
346.93	1341.42
347.13	1290.22
347.34	1329.13
347.55	1322.99
347.76	1298.41
347.97	1380.33
348.17	1300.46
348.38	1241.07
348.59	1234.93
348.80	1243.12
349.00	1310.70
349.21	1318.89
349.42	1396.71
349.63	1357.80
349.83	1210.35
350.04	1226.73
350.25	1325.04
350.45	1142.77
350.66	1310.70
350.87	1341.42
351.08	1218.54
351.28	1392.62
351.49	1288.17
351.70	1357.80
351.91	1210.35
352.11	1306.60
352.32	1267.69
352.53	1325.04
352.74	1210.35
352.94	1390.57
353.15	1269.74
353.36	1351.66
353.56	1271.79
353.77	1290.22
353.98	1378.28
354.19	1409.00
354.39	1245.16
354.60	1228.78
354.81	1296.36
355.02	1226.73
355.22	1384.43
355.43	1296.36
355.64	1216.49
355.84	1284.08
356.05	1171.44
356.26	1411.05
356.47	1322.99
356.67	1343.47
356.88	1370.09
357.09	1269.74
357.29	1251.31
357.50	1374.19
357.71	1234.93
357.92	1345.52
358.12	1302.51
358.33	1333.23
358.54	1288.17
358.74	1462.25
358.95	1249.26
359.16	1333.23
359.36	1140.72
359.57	1355.76
359.78	1413.10
359.98	1171.44
360.19	1273.84
360.40	1331.18
360.61	1378.28
360.81	1314.80
361.02	1155.05
361.23	1214.45
361.43	1257.45
361.64	1302.51
361.85	1312.75
362.05	1345.52
362.26	1296.36
362.47	1312.75
362.67	1261.55
362.88	1331.18
363.09	1185.77
363.29	1279.98
363.50	1230.83
363.71	1263.60
363.91	1318.89
364.12	1374.19
364.33	1206.25
364.53	1419.24
364.74	1308.65
364.95	1320.94
365.15	1333.23
365.36	1210.35
365.57	1415.15
365.77	1284.08
365.98	1288.17
366.19	1478.63
366.39	1263.60
366.60	1279.98
366.81	1167.34
367.01	1327.08
367.22	1279.98
367.43	1394.67
367.63	1304.56
367.84	1284.08
368.05	1310.70
368.25	1286.12
368.46	1341.42
368.67	1345.52
368.87	1249.26
369.08	1286.12
369.29	1177.58
369.49	1333.23
369.70	1304.56
369.91	1300.46
370.11	1249.26
370.32	1261.55
370.52	1251.31
370.73	1388.52
370.94	1165.29
371.14	1314.80
371.35	1333.23
371.56	1325.04
371.76	1296.36
371.97	1517.54
372.18	1236.97
372.38	1239.02
372.59	1271.79
372.79	1353.71
373.00	1208.30
373.21	1325.04
373.41	1310.70
373.62	1255.40
373.83	1308.65
374.03	1226.73
374.24	1325.04
374.44	1394.67
374.65	1421.29
374.86	1261.55
375.06	1302.51
375.27	1320.94
375.47	1366.00
375.68	1355.76
375.89	1335.28
376.09	1394.67
376.30	1234.93
376.50	1329.13
376.71	1318.89
376.92	1286.12
377.12	1292.27
377.33	1386.47
377.54	1273.84
377.74	1398.76
377.95	1497.07
378.15	1279.98
378.36	1253.36
378.57	1351.66
378.77	1398.76
378.98	1288.17
379.18	1234.93
379.39	1282.03
379.59	1292.27
379.80	1308.65
380.01	1310.70
380.21	1339.37
380.42	1318.89
380.62	1357.80
380.83	1114.10
381.04	1300.46
381.24	1306.60
381.45	1351.66
381.65	1318.89
381.86	1187.82
382.06	1384.43
382.27	1359.85
382.48	1275.88
382.68	1357.80
382.89	1378.28
383.09	1415.15
383.30	1327.08
383.51	1372.14
383.71	1447.91
383.92	1273.84
384.12	1269.74
384.33	1378.28
384.53	1314.80
384.74	1337.32
384.94	1394.67
385.15	1359.85
385.36	1398.76
385.56	1267.69
385.77	1304.56
385.97	1308.65
386.18	1286.12
386.38	1294.32
386.59	1337.32
386.79	1329.13
387.00	1234.93
387.21	1417.19
387.41	1425.39
387.62	1429.48
387.82	1359.85
388.03	1322.99
388.23	1312.75
388.44	1361.90
388.64	1288.17
388.85	1312.75
389.06	1296.36
389.26	1355.76
389.47	1302.51
389.67	1312.75
389.88	1478.63
390.08	1329.13
390.29	1509.35
390.49	1357.80
390.70	1320.94
390.90	1329.13
391.11	1292.27
391.31	1357.80
391.52	1249.26
391.72	1382.38
391.93	1234.93
392.13	1349.61
392.34	1318.89
392.55	1355.76
392.75	1329.13
392.96	1282.03
393.16	1476.59
393.37	1282.03
393.57	1331.18
393.78	1302.51
393.98	1345.52
394.19	1415.15
394.39	1314.80
394.60	1419.24
394.80	1398.76
395.01	1382.38
395.21	1585.13
395.42	1443.82
395.62	1296.36
395.83	1210.35
396.03	1398.76
396.24	1488.87
396.44	1392.62
396.65	1241.07
396.85	1327.08
397.06	1409.00
397.26	1370.09
397.47	1374.19
397.67	1449.96
397.88	1318.89
398.08	1335.28
398.29	1456.11
398.49	1390.57
398.70	1421.29
398.90	1292.27
399.11	1413.10
399.31	1476.59
399.52	1322.99
399.72	1417.19
399.93	1415.15
400.13	1269.74
400.34	1425.39
400.54	1468.39
400.75	1331.18
400.95	1443.82
401.15	1472.49
401.36	1302.51
401.56	1402.86
401.77	1288.17
401.97	1265.64
402.18	1353.71
402.38	1363.95
402.59	1359.85
402.79	1329.13
403.00	1368.04
403.20	1333.23
403.41	1382.38
403.61	1394.67
403.82	1366.00
404.02	1318.89
404.22	1335.28
404.43	1267.69
404.63	1353.71
404.84	1427.43
405.04	1388.52
405.25	1366.00
405.45	1370.09
405.66	1402.86
405.86	1378.28
406.07	1398.76
406.27	1390.57
406.47	1372.14
406.68	1439.72
406.88	1435.63
407.09	1400.81
407.29	1376.24
407.50	1398.76
407.70	1388.52
407.91	1329.13
408.11	1505.26
408.31	1366.00
408.52	1437.67
408.72	1288.17
408.93	1400.81
409.13	1423.34
409.34	1521.64
409.54	1384.43
409.74	1443.82
409.95	1345.52
410.15	1392.62
410.36	1439.72
410.56	1277.93
410.77	1425.39
410.97	1349.61
411.17	1501.16
411.38	1349.61
411.58	1409.00
411.79	1488.87
411.99	1423.34
412.19	1347.56
412.40	1492.97
412.60	1484.78
412.81	1390.57
413.01	1447.91
413.22	1466.35
413.42	1345.52
413.62	1361.90
413.83	1454.06
414.03	1413.10
414.24	1433.58
414.44	1458.15
414.64	1409.00
414.85	1376.24
415.05	1398.76
415.26	1413.10
415.46	1386.47
415.66	1339.37
415.87	1333.23
416.07	1392.62
416.28	1394.67
416.48	1564.65
416.68	1525.74
416.89	1474.54
417.09	1470.44
417.29	1460.20
417.50	1437.67
417.70	1384.43
417.91	1409.00
418.11	1413.10
418.31	1435.63
418.52	1445.87
418.72	1427.43
418.93	1474.54
419.13	1406.95
419.33	1439.72
419.54	1445.87
419.74	1439.72
419.94	1531.88
420.15	1503.21
420.35	1497.07
420.56	1447.91
420.76	1406.95
420.96	1415.15
421.17	1527.78
421.37	1511.40
421.57	1433.58
421.78	1480.68
421.98	1540.07
422.18	1648.61
422.39	1486.83
422.59	1435.63
422.80	1480.68
423.00	1468.39
423.20	1525.74
423.41	1411.05
423.61	1458.15
423.81	1454.06
424.02	1482.73
424.22	1554.41
424.42	1488.87
424.63	1497.07
424.83	1425.39
425.03	1556.46
425.24	1585.13
425.44	1515.50
425.64	1503.21
425.85	1439.72
426.05	1406.95
426.25	1466.35
426.46	1478.63
426.66	1546.22
426.86	1644.52
427.07	1648.61
427.27	1529.83
427.47	1591.27
427.68	1519.59
427.88	1634.28
428.08	1697.77
428.29	1538.02
428.49	1449.96
428.69	1746.92
428.90	1517.54
429.10	1470.44
429.30	1449.96
429.51	1540.07
429.71	1595.37
429.91	1517.54
430.12	1677.29
430.32	1667.05
430.52	1527.78
430.72	1513.45
430.93	1546.22
431.13	1544.17
431.33	1468.39
431.54	1558.50
431.74	1449.96
431.94	1490.92
432.15	1583.08
432.35	1544.17
432.55	1497.07
432.76	1488.87
432.96	1593.32
433.16	1619.94
433.36	1638.38
433.57	1546.22
433.77	1714.15
433.97	1521.64
434.18	1585.13
434.38	1630.18
434.58	1681.38
434.78	1615.85
434.99	1660.90
435.19	1634.28
435.39	1533.93
435.60	1601.51
435.80	1781.73
436.00	1599.46
436.20	1617.90
436.41	1529.83
436.61	1648.61
436.81	1601.51
437.02	1630.18
437.22	1628.14
437.42	1652.71
437.62	1572.84
437.83	1728.49
438.03	1599.46
438.23	1662.95
438.43	1759.21
438.64	1665.00
438.84	1669.09
439.04	1697.77
439.25	1703.91
439.45	1834.98
439.65	1585.13
439.85	1667.05
440.06	1720.29
440.26	1691.62
440.46	1710.05
440.66	1636.33
440.87	1597.42
441.07	1742.82
441.27	1738.73
441.47	1615.85
441.68	1632.23
441.88	1765.35
442.08	1701.86
442.28	1779.68
442.49	1738.73
442.69	1796.07
442.89	1587.18
443.09	1669.09
443.30	1550.31
443.50	1648.61
443.70	1701.86
443.90	1638.38
444.10	1652.71
444.31	1687.53
444.51	1652.71
444.71	1697.77
444.91	1652.71
445.12	1748.97
445.32	1888.23
445.52	1675.24
445.72	1656.81
445.93	1681.38
446.13	1748.97
446.33	1722.34
446.53	1814.50
446.73	1695.72
446.94	1628.14
447.14	1691.62
447.34	1603.56
447.54	1791.97
447.74	1742.82
447.95	1724.39
448.15	1621.99
448.35	1736.68
448.55	1681.38
448.76	1585.13
448.96	1728.49
449.16	1714.15
449.36	1738.73
449.56	1619.94
449.77	1763.30
449.97	1691.62
450.17	1640.42
450.37	1703.91
450.57	1665.00
450.78	1755.11
450.98	1689.57
451.18	1714.15
451.38	1660.90
451.58	1740.77
451.79	1599.46
451.99	1740.77
452.19	1603.56
452.39	1877.99
452.59	1794.02
452.79	1619.94
453.00	1724.39
453.20	1765.35
453.40	1640.42
453.60	1892.32
453.80	1765.35
454.01	1675.24
454.21	1714.15
454.41	1763.30
454.61	1767.40
454.81	1857.51
455.01	1775.59
455.22	1726.44
455.42	1759.21
455.62	1923.04
455.82	1718.25
456.02	1812.45
456.22	1861.60
456.43	1691.62
456.63	1732.58
456.83	1660.90
457.03	1779.68
457.23	1798.12
457.43	1634.28
457.64	1738.73
457.84	1822.69
458.04	1804.26
458.24	1726.44
458.44	1783.78
458.64	1812.45
458.84	1785.83
459.05	1689.57
459.25	1665.00
459.45	1763.30
459.65	1863.65
459.85	1759.21
460.05	1787.88
460.25	1796.07
460.46	1976.29
460.66	1816.55
460.86	1849.32
461.06	1888.23
461.26	1771.49
461.46	1826.79
461.66	1898.47
461.87	2000.87
462.07	1785.83
462.27	1918.95
462.47	1826.79
462.67	1884.13
462.87	1875.94
463.07	1769.44
463.27	1884.13
463.48	1767.40
463.68	1869.80
463.88	1832.93
464.08	1972.19
464.28	1867.75
464.48	1904.61
464.68	1898.47
464.88	1820.64
465.08	1826.79
465.29	1964.00
465.49	1826.79
465.69	1947.62
465.89	1980.39
466.09	2017.25
466.29	1873.89
466.49	2029.54
466.69	1869.80
466.89	1896.42
467.10	1959.91
467.30	1986.53
467.50	2109.41
467.70	1957.86
467.90	1898.47
468.10	1953.76
468.30	1925.09
468.50	1935.33
468.70	1982.43
468.90	1978.34
469.10	1990.63
469.31	2047.97
469.51	2009.06
469.71	1882.08
469.91	2015.20
470.11	1980.39
470.31	1966.05
470.51	2031.58
470.71	2056.16
470.91	2011.11
471.11	2060.26
471.31	2080.74
471.51	2136.03
471.71	2045.92
471.92	2123.74
472.12	2088.93
472.32	2031.58
472.52	2090.98
472.72	2050.02
472.92	2060.26
473.12	2168.80
473.32	2168.80
473.52	2205.66
473.72	2217.95
473.92	2217.95
474.12	2234.33
474.32	2156.51
474.52	2316.25
474.72	2222.05
474.92	2144.22
475.13	2256.86
475.33	2226.14
475.53	2359.26
475.73	2394.08
475.93	2338.78
476.13	2332.64
476.33	2408.41
476.53	2406.36
476.73	2359.26
476.93	2584.54
477.13	2527.19
477.33	2586.58
477.53	2541.53
477.73	2684.89
477.93	2645.98
478.13	2707.41
478.33	2811.86
478.53	2641.88
478.73	2766.81
478.93	2762.71
479.13	2719.70
479.33	2826.20
479.53	2910.16
479.73	2996.18
479.93	2930.64
480.13	3051.47
480.33	3184.59
480.53	3223.50
480.73	3123.15
480.93	3315.66
481.13	3264.46
481.34	3342.28
481.54	3385.29
481.74	3438.54
481.94	3610.57
482.14	3624.90
482.34	3815.37
482.54	3733.45
482.74	3876.80
482.94	4075.46
483.14	4048.83
483.34	4016.07
483.54	4298.69
483.74	4257.73
483.94	4278.21
484.14	4429.76
484.34	4634.55
484.54	4894.65
484.74	4995.00
484.94	5078.96
485.14	5107.63
485.34	5418.93
485.54	5568.43
485.74	5830.57
485.93	6039.46
486.13	6143.91
486.33	6234.02
486.53	6475.68
486.73	6848.41
486.93	6811.54
487.13	7141.27
487.33	7432.08
487.53	7671.69
487.73	8079.24
487.93	8202.11
488.13	8763.26
488.33	8830.84
488.53	9357.17
488.73	9414.51
488.93	10063.72
489.13	10350.43
489.33	10825.56
489.53	11231.06
489.73	11976.52
489.93	12011.34
490.13	12427.07
490.33	13522.74
490.53	13803.31
490.73	14110.50
490.93	14575.39
491.13	15275.80
491.33	16092.94
491.53	16631.55
491.73	17174.27
491.93	17456.89
492.12	18306.79
492.32	18781.92
492.52	19398.36
492.72	19900.11
492.92	20385.48
493.12	20657.86
493.32	21292.73
493.52	21903.03
493.72	22185.65
493.92	23023.26
494.12	23420.57
494.32	23492.25
494.52	23721.62
494.72	24360.59
494.92	24866.44
495.12	25429.63
495.31	25069.19
495.51	25720.44
495.71	25837.17
495.91	26211.95
496.11	26545.77
496.31	26441.32
496.51	26576.49
496.71	26599.02
496.91	26791.53
497.11	26873.45
497.31	26429.04
497.51	26273.39
497.71	26226.29
497.90	26027.63
498.10	26023.54
498.30	25566.84
498.50	25413.24
498.70	24954.50
498.90	24839.81
499.10	24032.91
499.30	23594.65
499.50	23541.40
499.70	23076.51
499.89	22498.98
500.09	21819.06
500.29	21493.43
500.49	20864.71
500.69	20125.39
500.89	19697.36
501.09	18710.24
501.29	18441.96
501.49	17977.07
501.69	17319.67
501.88	16797.44
502.08	15595.28
502.28	15720.21
502.48	15122.20
502.68	14362.40
502.88	13588.27
503.08	13131.58
503.28	12703.55
503.47	11958.09
503.67	11495.25
503.87	10774.36
504.07	10604.38
504.27	10176.36
504.47	9707.37
504.67	9185.14
504.87	8595.32
505.06	8130.44
505.26	7878.54
505.46	7524.24
505.66	7088.02
505.86	6866.84
506.06	6561.69
506.26	6203.30
506.45	5986.21
506.65	5883.81
506.85	5494.70
507.05	5277.62
507.25	5019.57
507.45	4892.60
507.65	4984.76
507.84	4650.94
508.04	4452.28
508.24	4186.05
508.44	4274.11
508.64	4208.58
508.84	4001.73
509.04	4014.02
509.23	3987.40
509.43	4083.65
509.63	3872.71
509.83	3784.65
510.03	3831.75
510.23	3897.28
510.42	3755.97
510.62	3751.88
510.82	3776.45
511.02	3874.76
511.22	3798.98
511.42	3624.90
511.61	3667.91
511.81	3809.22
512.01	3665.86
512.21	3749.83
512.41	3661.77
512.60	3594.19
512.80	3721.16
513.00	3731.40
513.20	3723.21
513.40	3651.53
513.60	3643.34
513.79	3801.03
513.99	3749.83
514.19	3663.82
514.39	3639.24
514.59	3760.07
514.78	3770.31
514.98	3850.18
515.18	3780.55
515.38	3829.70
515.58	3856.33
515.77	3760.07
515.97	3731.40
516.17	3764.17
516.37	3968.96
516.57	3854.28
516.76	3858.37
516.96	3882.95
517.16	3831.75
517.36	3821.51
517.56	3919.81
517.75	3893.19
517.95	3825.61
518.15	3905.48
518.35	3973.06
518.55	3915.72
518.74	4024.26
518.94	4071.36
519.14	3979.20
519.34	3936.20
519.53	3930.05
519.73	4069.31
519.93	4063.17
520.13	4159.42
520.32	4026.31
520.52	4093.89
520.72	4165.57
520.92	3985.35
521.12	4083.65
521.31	3971.01
521.51	4079.55
521.71	4206.53
521.91	4093.89
522.10	4241.34
522.30	4163.52
522.50	4155.33
522.70	4102.08
522.89	4073.41
523.09	4147.14
523.29	4153.28
523.49	4204.48
523.68	4147.14
523.88	4188.10
524.08	4351.93
524.28	4263.87
524.47	4116.42
524.67	4083.65
524.87	4245.44
525.07	4290.49
525.26	4179.90
525.46	4323.26
525.66	4302.78
525.86	4231.10
526.05	4220.86
526.25	4288.45
526.45	4155.33
526.64	4241.34
526.84	4212.67
527.04	4218.82
527.24	4177.86
527.43	4204.48
527.63	4280.25
527.83	4405.18
528.03	4321.21
528.22	4474.81
528.42	4323.26
528.62	4396.99
528.81	4292.54
529.01	4368.32
529.21	4296.64
529.41	4331.45
529.60	4276.16
529.80	4341.69
530.00	4263.87
530.19	4313.02
530.39	4358.08
530.59	4444.09
530.79	4261.82
530.98	4177.86
531.18	4171.71
531.38	4267.97
531.57	4405.18
531.77	4388.80
531.97	4380.61
532.16	4380.61
532.36	4249.54
532.56	4270.01
532.76	4380.61
532.95	4399.04
533.15	4470.72
533.35	4497.34
533.54	4319.17
533.74	4423.61
533.94	4372.41
534.13	4222.91
534.33	4564.92
534.53	4425.66
534.72	4501.44
534.92	4339.65
535.12	4294.59
535.31	4267.97
535.51	4376.51
535.71	4503.48
535.90	4530.11
536.10	4251.58
536.30	4270.01
536.49	4401.08
536.69	4349.89
536.89	4478.91
537.08	4341.69
537.28	4300.73
537.48	4433.85
537.67	4609.98
537.87	4437.95
538.07	4407.23
538.26	4401.08
538.46	4349.89
538.66	4472.76
538.85	4399.04
539.05	4784.06
539.25	4427.71
539.44	4558.78
539.64	4360.13
539.84	4521.92
540.03	4478.91
540.23	4442.04
540.42	4573.11
540.62	4691.90
540.82	4358.08
541.01	4546.49
541.21	4368.32
541.41	4435.90
541.60	4440.00
541.80	4431.80
542.00	4370.37
542.19	4526.01
542.39	4564.92
542.58	4474.81
542.78	4542.39
542.98	4583.35
543.17	4444.09
543.37	4466.62
543.57	4562.87
543.76	4569.02
543.96	4638.65
544.15	4749.24
544.35	4513.72
544.55	4470.72
544.74	4540.35
544.94	4751.29
545.13	4605.88
545.33	4528.06
545.53	4472.76
545.72	4634.55
545.92	4523.96
546.11	4620.22
546.31	4650.94
546.51	4736.95
546.70	4782.01
546.90	4718.52
547.09	4540.35
547.29	4659.13
547.49	4661.18
547.68	4616.12
547.88	4681.66
548.07	4851.64
548.27	4784.06
548.47	4747.19
548.66	4927.41
548.86	4841.40
549.05	4831.16
549.25	4773.82
549.45	4839.35
549.64	4642.75
549.84	4777.91
550.03	4765.62
550.23	4769.72
550.42	4933.56
550.62	4853.69
550.82	4659.13
551.01	4827.06
551.21	4974.52
551.40	4857.78
551.60	4839.35
551.79	4872.12
551.99	4915.12
552.19	4859.83
552.38	4882.36
552.58	4904.89
552.77	4984.76
552.97	4931.51
553.16	5070.77
553.36	4949.94
553.55	4960.18
553.75	5066.67
553.95	4810.68
554.14	5144.50
554.34	4964.28
554.53	5083.06
554.73	5152.69
554.92	4992.95
555.12	4990.90
555.31	5007.28
555.51	5078.96
555.70	5001.14
555.90	5160.88
556.09	4913.08
556.29	5156.79
556.49	5230.51
556.68	5203.89
556.88	5076.91
557.07	5285.81
557.27	5074.87
557.46	5130.16
557.66	5115.83
557.85	5119.92
558.05	5279.66
558.24	5148.59
558.44	5156.79
558.63	5177.26
558.83	5203.89
559.02	5207.98
559.22	5078.96
559.41	5324.72
559.61	5312.43
559.80	5289.90
560.00	5294.00
560.19	5214.13
560.39	5339.05
560.58	5392.30
560.78	5158.83
560.97	5291.95
561.17	5369.77
561.36	5164.98
561.56	5343.15
561.75	5189.55
561.95	5355.44
562.14	5158.83
562.34	5265.33
562.53	5300.14
562.73	5093.30
562.92	5179.31
563.12	5058.48
563.31	5332.91
563.51	5189.55
563.70	5420.97
563.90	5394.35
564.09	5216.18
564.29	5269.42
564.48	5261.23
564.68	5248.94
564.87	5203.89
565.07	5384.11
565.26	5371.82
565.46	5240.75
565.65	5328.81
565.85	5214.13
566.04	5210.03
566.24	5134.26
566.43	5259.18
566.63	5314.48
566.82	5380.01
567.01	5339.05
567.21	5222.32
567.40	5377.97
567.60	5109.68
567.79	5341.10
567.99	5197.74
568.18	5332.91
568.38	5369.77
568.57	5275.57
568.77	5144.50
568.96	5148.59
569.15	5302.19
569.35	5140.40
569.54	5371.82
569.74	5150.64
569.93	5236.66
570.13	5496.75
570.32	5291.95
570.52	5339.05
570.71	5423.02
570.90	5277.62
571.10	5390.25
571.29	5193.65
571.49	5179.31
571.68	5271.47
571.88	5373.87
572.07	5078.96
572.26	5187.50
572.46	5400.49
572.65	5347.25
572.85	5263.28
573.04	5285.81
573.24	5248.94
573.43	5359.53
573.62	5345.20
573.82	5388.21
574.01	5179.31
574.21	5238.70
574.40	5265.33
574.59	5167.03
574.79	5181.36
574.98	5431.21
575.18	5222.32
575.37	5244.85
575.56	5146.55
575.76	5013.43
575.95	5314.48
576.15	5261.23
576.34	5205.94
576.53	5210.03
576.73	5277.62
576.92	5150.64
577.12	5162.93
577.31	5300.14
577.50	5224.37
577.70	5187.50
577.89	5275.57
578.09	5425.07
578.28	5181.36
578.47	5179.31
578.67	5191.60
578.86	5117.87
579.06	5283.76
579.25	5322.67
579.44	5101.49
579.64	5283.76
579.83	5230.51
580.02	5400.49
580.22	5248.94
580.41	5310.38
580.61	5312.43
580.80	5224.37
580.99	5273.52
581.19	5314.48
581.38	5248.94
581.57	5412.78
581.77	5205.94
581.96	5177.26
582.15	5193.65
582.35	5392.30
582.54	5152.69
582.73	5314.48
582.93	5330.86
583.12	5318.57
583.32	5263.28
583.51	5345.20
583.70	5449.64
583.90	5461.93
584.09	5408.69
584.28	5330.86
584.48	5345.20
584.67	5214.13
584.86	5173.17
585.06	5199.79
585.25	5265.33
585.44	5367.73
585.64	5349.29
585.83	5423.02
586.02	5410.73
586.22	5234.61
586.41	5185.46
586.60	5345.20
586.80	5345.20
586.99	5302.19
587.18	5404.59
587.38	5410.73
587.57	5339.05
587.76	5328.81
587.96	5457.84
588.15	5480.36
588.34	5085.11
588.53	5375.92
588.73	5351.34
588.92	5461.93
589.11	5509.04
589.31	5310.38
589.50	5451.69
589.69	5480.36
589.89	5519.28
590.08	5369.77
590.27	5277.62
590.47	5445.55
590.66	5205.94
590.85	5359.53
591.04	5334.96
591.24	5492.65
591.43	5285.81
591.62	5351.34
591.82	5332.91
592.01	5539.76
592.20	5502.89
592.39	5408.69
592.59	5496.75
592.78	5320.62
592.97	5304.24
593.17	5277.62
593.36	5322.67
593.55	5568.43
593.74	5398.45
593.94	5519.28
594.13	5537.71
594.32	5433.26
594.52	5435.31
594.71	5490.60
594.90	5451.69
595.09	5384.11
595.29	5488.56
595.48	5539.76
595.67	5402.54
595.86	5461.93
596.06	5363.63
596.25	5480.36
596.44	5361.58
596.63	5214.13
596.83	5408.69
597.02	5318.57
597.21	5244.85
597.40	5384.11
597.60	5455.79
597.79	5330.86
597.98	5361.58
598.17	5478.32
598.37	5459.88
598.56	5224.37
598.75	5310.38
598.94	5296.05
599.14	5169.07
599.33	5250.99
599.52	5375.92
599.71	5365.68
599.91	5396.40
600.10	5205.94
600.29	5283.76
600.48	5396.40
600.68	5394.35
600.87	5169.07
601.06	5341.10
601.25	5369.77
601.44	5289.90
601.64	5310.38
601.83	5248.94
602.02	5185.46
602.21	5359.53
602.41	5199.79
602.60	5343.15
602.79	5228.46
602.98	5345.20
603.17	5275.57
603.37	5314.48
603.56	5328.81
603.75	5140.40
603.94	5308.34
604.13	5246.90
604.33	5353.39
604.52	5060.53
604.71	5142.45
604.90	5187.50
605.09	5261.23
605.29	5212.08
605.48	5156.79
605.67	5193.65
605.86	4976.56
606.05	5138.35
606.25	5052.34
606.44	5056.43
606.63	5124.02
606.82	5312.43
607.01	5038.00
607.20	5152.69
607.40	5101.49
607.59	5121.97
607.78	5011.38
607.97	5152.69
608.16	5050.29
608.36	5265.33
608.55	4915.12
608.74	5009.33
608.93	5103.54
609.12	4927.41
609.31	5009.33
609.51	4941.75
609.70	5078.96
609.89	5003.19
610.08	5138.35
610.27	4980.66
610.46	5085.11
610.66	5173.17
610.85	5078.96
611.04	5029.81
611.23	5083.06
611.42	4898.74
611.61	4941.75
611.80	4880.31
612.00	5027.76
612.19	4970.42
612.38	5042.10
612.57	4925.36
612.76	4980.66
612.95	5232.56
613.14	5058.48
613.34	4872.12
613.53	4980.66
613.72	5076.91
613.91	4841.40
614.10	5019.57
614.29	5076.91
614.48	5013.43
614.67	4925.36
614.87	4984.76
615.06	4911.03
615.25	5119.92
615.44	5001.14
615.63	4861.88
615.82	5064.63
616.01	5058.48
616.20	4822.97
616.40	5074.87
616.59	4976.56
616.78	4923.32
616.97	5171.12
617.16	4990.90
617.35	5042.10
617.54	5083.06
617.73	4962.23
617.92	4825.01
618.12	4847.54
618.31	4931.51
618.50	4990.90
618.69	4818.87
618.88	5017.52
619.07	4913.08
619.26	5054.39
619.45	4814.77
619.64	4843.45
619.83	5044.15
620.02	4935.60
620.22	4908.98
620.41	4833.21
620.60	5085.11
620.79	5001.14
620.98	4886.45
621.17	4683.70
621.36	5076.91
621.55	4880.31
621.74	4970.42
621.93	4808.63
622.12	5027.76
622.31	5068.72
622.51	5201.84
622.70	4872.12
622.89	5011.38
623.08	5007.28
623.27	4964.28
623.46	4919.22
623.65	4865.97
623.84	4839.35
624.03	4880.31
624.22	4970.42
624.41	5029.81
624.60	4956.08
624.79	4990.90
624.98	5003.19
625.17	4851.64
625.36	4919.22
625.55	4837.30
625.74	4874.17
625.94	4929.46
626.13	4939.70
626.32	4960.18
626.51	4992.95
626.70	4843.45
626.89	4904.89
627.08	4925.36
627.27	5009.33
627.46	4974.52
627.65	4798.39
627.84	4851.64
628.03	4945.84
628.22	4820.92
628.41	5064.63
628.60	4665.27
628.79	4837.30
628.98	5138.35
629.17	4974.52
629.36	4921.27
629.55	4939.70
629.74	5154.74
629.93	5040.05
630.12	5035.96
630.31	4882.36
630.50	5214.13
630.69	5017.52
630.88	5066.67
631.07	5050.29
631.26	5103.54
631.45	4980.66
631.64	5013.43
631.83	5064.63
632.02	4911.03
632.21	4939.70
632.40	5197.74
632.59	4927.41
632.78	4986.80
632.97	5056.43
633.16	5017.52
633.35	5031.86
633.54	5035.96
633.73	4833.21
633.92	4972.47
634.11	5031.86
634.30	5076.91
634.49	4906.93
634.68	4984.76
634.87	5124.02
635.06	5048.24
635.25	5132.21
635.44	5140.40
635.63	5015.48
635.82	5076.91
636.01	5056.43
636.20	5124.02
636.39	5156.79
636.58	5117.87
636.77	5025.72
636.96	5076.91
637.15	5302.19
637.34	5322.67
637.53	5179.31
637.72	5150.64
637.91	5164.98
638.09	5322.67
638.28	5113.78
638.47	5058.48
638.66	5257.14
638.85	5201.84
639.04	5289.90
639.23	5328.81
639.42	5183.41
639.61	5224.37
639.80	5132.21
639.99	5420.97
640.18	5308.34
640.37	5509.04
640.56	5230.51
640.75	5240.75
640.94	5281.71
641.13	5300.14
641.32	5414.83
641.50	5322.67
641.69	5183.41
641.88	5269.42
642.07	5345.20
642.26	5564.33
642.45	5377.97
642.64	5394.35
642.83	5345.20
643.02	5408.69
643.21	5371.82
643.40	5511.08
643.59	5332.91
643.77	5318.57
643.96	5523.37
644.15	5519.28
644.34	5453.74
644.53	5294.00
644.72	5414.83
644.91	5527.47
645.10	5646.25
645.29	5474.22
645.48	5466.03
645.67	5601.19
645.85	5478.32
646.04	5590.95
646.23	5566.38
646.42	5560.24
646.61	5451.69
646.80	5420.97
646.99	5361.58
647.18	5650.35
647.37	5365.68
647.55	5586.86
647.74	5736.36
647.93	5463.98
648.12	5615.53
648.31	5425.07
648.50	5463.98
648.69	5650.35
648.88	5580.71
649.06	5519.28
649.25	5584.81
649.44	5494.70
649.63	5277.62
649.82	5584.81
650.01	5595.05
650.20	5410.73
650.39	5586.86
650.57	5605.29
650.76	5550.00
650.95	5504.94
651.14	5433.26
651.33	5568.43
651.52	5627.82
651.70	5543.85
651.89	5439.40
652.08	5386.16
652.27	5666.73
652.46	5711.78
652.65	5457.84
652.84	5466.03
653.02	5554.09
653.21	5490.60
653.40	5480.36
653.59	5494.70
653.78	5380.01
653.97	5361.58
654.15	5474.22
654.34	5537.71
654.53	5224.37
654.72	5494.70
654.91	5339.05
655.10	5375.92
655.28	5470.12
655.47	5435.31
655.66	5312.43
655.85	5345.20
656.04	5199.79
656.23	5296.05
656.41	5248.94
656.60	5259.18
656.79	5353.39
656.98	5242.80
657.17	5197.74
657.35	5236.66
657.54	5072.82
657.73	5148.59
657.92	5212.08
658.11	5230.51
658.29	4997.04
658.48	5099.44
658.67	5087.15
658.86	5183.41
659.05	5087.15
659.23	5040.05
659.42	5025.72
659.61	5083.06
659.80	4831.16
659.99	4911.03
660.17	5042.10
660.36	4863.93
660.55	4788.15
660.74	4921.27
660.92	4863.93
661.11	4675.51
661.30	4890.55
661.49	4747.19
661.68	4691.90
661.86	4784.06
662.05	4765.62
662.24	4566.97
662.43	4618.17
662.61	4605.88
662.80	4587.45
662.99	4511.68
663.18	4552.63
663.37	4489.15
663.55	4552.63
663.74	4593.59
663.93	4265.92
664.12	4560.83
664.30	4501.44
664.49	4407.23
664.68	4388.80
664.87	4282.30
665.05	4331.45
665.24	4335.55
665.43	4442.04
665.62	4184.00
665.80	4368.32
665.99	4337.60
666.18	4337.60
666.37	4304.83
666.55	4282.30
666.74	4192.19
666.93	4362.17
667.11	4067.27
667.30	4165.57
667.49	4263.87
667.68	4157.38
667.86	4014.02
668.05	4270.01
668.24	4143.04
668.43	4102.08
668.61	4175.81
668.80	4130.75
668.99	4159.42
669.17	4218.82
669.36	4140.99
669.55	4071.36
669.74	4097.99
669.92	3985.35
670.11	3930.05
670.30	4089.79
670.48	3991.49
670.67	4118.47
670.86	4011.97
671.05	3946.44
671.23	3989.44
671.42	3895.24
671.61	4034.50
671.79	4030.40
671.98	3991.49
672.17	3938.24
672.35	4085.70
672.54	3964.87
672.73	4028.35
672.91	3979.20
673.10	3889.09
673.29	3921.86
673.48	3862.47
673.66	3977.16
673.85	4114.37
674.04	3934.15
674.22	4024.26
674.41	4003.78
674.60	3977.16
674.78	3960.77
674.97	4065.22
675.16	3858.37
675.34	3768.26
675.53	3954.63
675.72	4057.03
675.90	4138.94
676.09	3981.25
676.28	3891.14
676.46	3966.92
676.65	3946.44
676.84	4050.88
677.02	4153.28
677.21	3946.44
677.40	4222.91
677.58	3889.09
677.77	3979.20
677.95	3909.57
678.14	3997.64
678.33	3923.91
678.51	4169.66
678.70	4190.14
678.89	4106.18
679.07	3999.68
679.26	4007.87
679.45	4194.24
679.63	4165.57
679.82	4130.75
680.01	4200.38
680.19	4120.51
680.38	4302.78
680.56	4294.59
680.75	4259.78
680.94	4243.39
681.12	4298.69
681.31	4329.41
681.50	4145.09
681.68	4159.42
681.87	4267.97
682.05	4245.44
682.24	4519.87
682.43	4497.34
682.61	4491.20
682.80	4458.43
682.98	4413.37
683.17	4503.48
683.36	4507.58
683.54	4575.16
683.73	4536.25
683.91	4693.94
684.10	4554.68
684.29	4771.77
684.47	4691.90
684.66	4749.24
684.84	4706.23
685.03	4843.45
685.22	4747.19
685.40	4933.56
685.59	4878.26
685.77	4937.65
685.96	4925.36
686.15	4851.64
686.33	4974.52
686.52	4925.36
686.70	5021.62
686.89	5068.72
687.07	5097.39
687.26	5212.08
687.45	5074.87
687.63	5076.91
687.82	5181.36
688.00	5255.09
688.19	5167.03
688.37	5162.93
688.56	5328.81
688.75	5457.84
688.93	5531.56
689.12	5490.60
689.30	5406.64
689.49	5687.21
689.67	5476.27
689.86	5619.63
690.04	5648.30
690.23	5582.76
690.42	5646.25
690.60	5851.05
690.79	5857.19
690.97	5871.53
691.16	5728.17
691.34	5830.57
691.53	5896.10
691.71	5996.45
691.90	5781.42
692.08	5849.00
692.27	6023.08
692.45	6043.56
692.64	6086.56
692.83	6199.20
693.01	6217.63
693.20	6084.52
693.38	6152.10
693.57	6442.91
693.75	6154.15
693.94	6227.87
694.12	6412.19
694.31	6248.35
694.49	6338.46
694.68	6477.73
694.86	6592.41
695.05	6453.15
695.23	6539.16
695.42	6721.43
695.60	6557.60
695.79	6750.10
695.97	6674.33
696.16	6674.33
696.34	6600.60
696.53	6739.87
696.71	6809.50
696.90	6703.00
697.08	6694.81
697.27	6928.28
697.45	6676.38
697.64	6946.71
697.82	6723.48
698.01	6905.75
698.19	7114.64
698.38	7002.01
698.56	7045.01
698.75	7034.77
698.93	7102.36
699.12	7034.77
699.30	7120.79
699.49	7219.09
699.67	7040.92
699.86	7180.18
700.04	7206.80
700.22	7260.05
700.41	7323.54
700.59	7198.61
700.78	7231.38
700.96	7188.37
701.15	7280.53
701.33	7235.47
701.52	7258.00
701.70	7303.06
701.89	7399.31
702.07	7317.39
702.26	7454.61
702.44	7612.30
702.62	7587.72
702.81	7511.95
702.99	7311.25
703.18	7608.20
703.36	7440.27
703.55	7714.70
703.73	7577.48
703.92	7612.30
704.10	7442.32
704.28	7661.45
704.47	7792.52
704.65	7452.56
704.84	7624.59
705.02	7632.78
705.21	7772.04
705.39	7786.38
705.57	7616.40
705.76	7954.31
705.94	7753.61
706.13	7956.36
706.31	7661.45
706.50	7929.74
706.68	7518.09
706.86	7767.95
707.05	7724.94
707.23	7952.26
707.42	7987.08
707.60	7649.16
707.78	7935.88
707.97	7954.31
708.15	7763.85
708.34	7671.69
708.52	7673.74
708.70	7985.03
708.89	7974.79
709.07	8054.66
709.26	7782.28
709.44	7917.45
709.62	7804.81
709.81	7827.34
709.99	8019.85
710.18	7997.32
710.36	7780.23
710.54	8157.06
710.73	8107.91
710.91	8044.42
711.10	8165.25
711.28	7993.22
711.46	8003.46
711.65	8071.04
711.83	7813.00
712.01	8200.07
712.20	8216.45
712.38	8081.28
712.57	8138.63
712.75	7954.31
712.93	8134.53
713.12	8165.25
713.30	7962.50
713.48	7882.63
713.67	8046.47
713.85	7935.88
714.03	8296.32
714.22	8091.52
714.40	8079.24
714.58	7999.37
714.77	8032.13
714.95	8148.87
715.14	8114.05
715.32	8181.64
715.50	8116.10
715.69	8052.61
715.87	7960.45
716.05	7970.69
716.24	8173.44
716.42	8023.94
716.60	8042.37
716.79	8056.71
716.97	7937.93
717.15	8038.28
717.34	8169.35
717.52	7978.89
717.70	8136.58
717.89	7978.89
718.07	8087.43
718.25	8091.52
718.44	8224.64
718.62	7962.50
718.80	8093.57
718.98	7890.82
719.17	7901.06
719.35	8198.02
719.53	8107.91
719.72	7956.36
719.90	8007.56
720.08	8009.61
720.27	7997.32
720.45	7917.45
720.63	8136.58
720.82	8056.71
721.00	8025.99
721.18	7927.69
721.36	8150.92
721.55	8044.42
721.73	8128.39
721.91	8060.80
722.10	7962.50
722.28	7876.49
722.46	8007.56
722.64	7831.43
722.83	7899.02
723.01	8036.23
723.19	7948.17
723.38	7880.58
723.56	7985.03
723.74	7784.33
723.92	7878.54
724.11	7778.19
724.29	7896.97
724.47	7931.78
724.65	7729.03
724.84	7856.01
725.02	7913.35
725.20	7935.88
725.39	7813.00
725.57	7950.21
725.75	7952.26
725.93	8050.57
726.12	7890.82
726.30	7659.40
726.48	7706.51
726.66	7794.57
726.85	7858.06
727.03	7751.56
727.21	7862.15
727.39	7673.74
727.58	7835.53
727.76	7675.79
727.94	7622.54
728.12	7751.56
728.30	7735.18
728.49	7681.93
728.67	7698.31
728.85	7810.95
729.03	7597.96
729.22	7718.79
729.40	7640.97
729.58	7741.32
729.76	7786.38
729.95	7645.07
730.13	7649.16
730.31	7745.42
730.49	7667.60
730.67	7567.24
730.86	7645.07
731.04	7786.38
731.22	7583.63
731.40	7520.14
731.58	7874.44
731.77	7681.93
731.95	7573.39
732.13	7501.71
732.31	7559.05
732.50	7626.64
732.68	7276.43
732.86	7608.20
733.04	7614.35
733.22	7319.44
733.40	7284.62
733.59	7524.24
733.77	7522.19
733.95	7475.09
734.13	7432.08
734.31	7311.25
734.50	7366.54
734.68	7374.74
734.86	7255.95
735.04	7419.79
735.22	7350.16
735.41	7374.74
735.59	7188.37
735.77	7284.62
735.95	7286.67
736.13	7016.34
736.31	7247.76
736.50	7241.62
736.68	7503.76
736.86	7237.52
737.04	7126.93
737.22	7247.76
737.40	7214.99
737.59	7225.23
737.77	7245.71
737.95	7165.84
738.13	7071.64
738.31	7067.54
738.49	7176.08
738.67	6915.99
738.86	7186.32
739.04	7225.23
739.22	7040.92
739.40	7026.58
739.58	7167.89
739.76	7139.22
739.94	6987.67
740.13	7169.94
740.31	7061.40
740.49	6856.60
740.67	6907.80
740.85	7032.72
741.03	6979.48
741.21	6973.33
741.39	6942.61
741.58	6899.61
741.76	7018.39
741.94	7004.05
742.12	6784.92
742.30	6797.21
742.48	6778.78
742.66	6752.15
742.84	6694.81
743.03	6565.79
743.21	6789.02
743.39	6586.27
743.57	6670.23
743.75	6666.14
743.93	6707.10
744.11	6688.67
744.29	6614.94
744.47	6551.45
744.65	6647.71
744.84	6590.36
745.02	6571.93
745.20	6674.33
745.38	6447.01
745.56	6336.42
745.74	6541.21
745.92	6377.37
746.10	6483.87
746.28	6457.25
746.46	6447.01
746.64	6498.20
746.82	6490.01
747.01	6342.56
747.19	6383.52
747.37	6369.18
747.55	6371.23
747.73	6289.31
747.91	6242.21
748.09	6340.51
748.27	6317.98
748.45	6254.50
748.63	6145.95
748.81	6023.08
748.99	6209.44
749.17	6254.50
749.35	6227.87
749.53	6195.11
749.72	6260.64
749.90	6055.84
750.08	6141.86
750.26	6035.36
750.44	6131.62
750.62	6068.13
750.80	6117.28
750.98	5951.40
751.16	5892.01
751.34	6262.69
751.52	6039.46
751.70	6016.93
751.88	5912.49
752.06	6070.18
752.24	5937.06
752.42	6004.64
752.60	5955.49
752.78	5746.60
752.96	5873.57
753.14	5994.40
753.32	5769.13
753.50	5971.88
753.68	5908.39
753.86	5943.21
754.04	5892.01
754.22	5791.66
754.40	6006.69
754.58	5724.07
754.76	5832.62
754.94	5760.94
755.12	5844.90
755.30	5756.84
755.48	5873.57
755.66	5693.35
755.84	5695.40
756.02	5754.79
756.20	5619.63
756.38	5812.14
756.56	5693.35
756.74	5623.72
756.92	5871.53
757.10	5711.78
757.28	5633.96
757.46	5658.54
757.64	5752.74
757.82	5715.88
758.00	5664.68
758.18	5765.03
758.36	5808.04
758.54	5767.08
758.72	5672.87
758.90	5582.76
759.08	5601.19
759.26	5697.45
759.44	5578.67
759.62	5631.91
759.80	5609.39
759.98	5599.15
760.16	5500.84
760.34	5631.91
760.52	5654.44
760.70	5480.36
760.88	5527.47
761.06	5363.63
761.24	5433.26
761.42	5554.09
761.60	5570.48
761.77	5441.45
761.95	5500.84
762.13	5648.30
762.31	5492.65
762.49	5527.47
762.67	5535.66
762.85	5361.58
763.03	5410.73
763.21	5310.38
763.39	5359.53
763.57	5478.32
763.75	5373.87
763.93	5339.05
764.11	5337.01
764.29	5337.01
764.46	5308.34
764.64	5207.98
764.82	5236.66
765.00	5265.33
765.18	5359.53
765.36	5248.94
765.54	5146.55
765.72	5101.49
765.90	5117.87
766.08	5179.31
766.26	5201.84
766.44	5179.31
766.61	5124.02
766.79	5093.30
766.97	5150.64
767.15	5013.43
767.33	5140.40
767.51	5181.36
767.69	5107.63
767.87	5001.14
768.05	4911.03
768.22	5099.44
768.40	5107.63
768.58	4980.66
768.76	4943.80
768.94	4935.60
769.12	4833.21
769.30	5025.72
769.48	5042.10
769.66	4982.71
769.83	4872.12
770.01	4880.31
770.19	4888.50
770.37	5038.00
770.55	4689.85
770.73	4829.11
770.91	4798.39
771.09	4679.61
771.26	4788.15
771.44	4949.94
771.62	4837.30
771.80	4757.43
771.98	4710.33
772.16	4644.79
772.34	4667.32
772.51	4685.75
772.69	4722.62
772.87	4777.91
773.05	4695.99
773.23	4595.64
773.41	4515.77
773.58	4716.47
773.76	4755.38
773.94	4700.09
774.12	4665.27
774.30	4605.88
774.48	4667.32
774.65	4388.80
774.83	4472.76
775.01	4620.22
775.19	4546.49
775.37	4609.98
775.55	4579.26
775.72	4366.27
775.90	4444.09
776.08	4497.34
776.26	4650.94
776.44	4485.05
776.61	4399.04
776.79	4411.32
776.97	4321.21
777.15	4478.91
777.33	4345.79
777.51	4343.74
777.68	4216.77
777.86	4175.81
778.04	4210.62
778.22	4325.31
778.40	4345.79
778.57	4140.99
778.75	4147.14
778.93	4278.21
779.11	4325.31
779.29	4175.81
779.46	4317.12
779.64	4132.80
779.82	4184.00
780.00	4222.91
780.17	4233.15
780.35	4071.36
780.53	4153.28
780.71	4276.16
780.89	4251.58
781.06	4007.87
781.24	4247.49
781.42	4126.66
781.60	4077.51
781.77	4143.04
781.95	4106.18
782.13	4216.77
782.31	4007.87
782.48	4143.04
782.66	3928.00
782.84	4184.00
783.02	4069.31
783.19	4097.99
783.37	3950.53
783.55	4063.17
783.73	3991.49
783.90	4085.70
784.08	4081.60
784.26	3983.30
784.44	3999.68
784.61	4061.12
784.79	4095.94
784.97	3942.34
785.15	3973.06
785.32	3919.81
785.50	4149.18
785.68	3962.82
785.86	3946.44
786.03	4083.65
786.21	3958.72
786.39	3979.20
786.57	3979.20
786.74	3862.47
786.92	3895.24
787.10	3971.01
787.27	3893.19
787.45	3993.54
787.63	3882.95
787.81	3907.52
787.98	3934.15
788.16	3930.05
788.34	3948.48
788.51	3786.69
788.69	3741.64
788.87	3829.70
789.04	3860.42
789.22	3899.33
789.40	3676.10
789.58	3817.41
789.75	3737.54
789.93	3819.46
790.11	3878.85
790.28	3786.69
790.46	3977.16
790.64	3737.54
790.81	3680.20
790.99	3848.13
791.17	3776.45
791.34	3704.78
791.52	3764.17
791.70	3721.16
791.87	3889.09
792.05	3672.01
792.23	3706.82
792.40	3837.89
792.58	3622.86
792.76	3633.10
792.93	3747.78
793.11	3569.61
793.29	3665.86
793.46	3698.63
793.64	3725.26
793.82	3749.83
793.99	3557.32
794.17	3481.55
794.35	3618.76
794.52	3665.86
794.70	3770.31
794.88	3848.13
795.05	3610.57
795.23	3581.90
795.41	3657.67
795.58	3477.45
795.76	3596.23
795.94	3518.41
796.11	3450.83
796.29	3622.86
796.46	3645.38
796.64	3643.34
796.82	3557.32
796.99	3538.89
797.17	3434.44
797.35	3487.69
797.52	3512.27
797.70	3602.38
797.87	3569.61
798.05	3706.82
798.23	3542.99
798.40	3600.33
798.58	3450.83
798.76	3387.34
798.93	3502.03
799.11	3495.88
799.28	3518.41
799.46	3526.60
799.64	3348.43
799.81	3448.78
799.99	3475.40
800.16	3456.97
800.34	3375.05
800.52	3407.82
800.69	3375.05
800.87	3577.80
801.04	3387.34
801.22	3461.07
801.39	3436.49
801.57	3284.94
801.75	3381.20
801.92	3418.06
802.10	3346.38
802.27	3243.98
802.45	3471.31
802.63	3377.10
802.80	3497.93
802.98	3305.42
803.15	3377.10
803.33	3336.14
803.50	3413.96
803.68	3313.61
803.86	3389.39
804.03	3354.57
804.21	3448.78
804.38	3436.49
804.56	3573.71
804.73	3393.48
804.91	3270.61
805.08	3303.37
805.26	3192.78
805.44	3207.12
805.61	3250.13
805.79	3284.94
805.96	3186.64
806.14	3319.76
806.31	3114.96
806.49	3315.66
806.66	3362.76
806.84	3211.22
807.01	3270.61
807.19	3280.85
807.36	3250.13
807.54	3235.79
807.71	3157.97
807.89	3155.92
808.07	3164.11
808.24	3192.78
808.42	3221.45
808.59	3166.16
808.77	3141.58
808.94	3266.51
809.12	3198.93
809.29	3248.08
809.47	3024.85
809.64	3213.26
809.82	3147.73
809.99	3192.78
810.17	3276.75
810.34	3094.48
810.52	3121.10
810.69	3221.45
810.87	3049.43
811.04	3106.77
811.22	3192.78
811.39	3157.97
811.57	3129.30
811.74	3110.86
811.92	3184.59
812.09	3225.55
812.27	3170.26
812.44	3067.86
812.62	3092.43
812.79	3069.91
812.97	3063.76
813.14	3080.14
813.31	2938.84
813.49	3067.86
813.66	2963.41
813.84	3010.51
814.01	3024.85
814.19	3053.52
814.36	3098.58
814.54	2996.18
814.71	3074.00
814.89	2910.16
815.06	3149.78
815.24	3026.90
815.41	3008.47
815.58	3074.00
815.76	3053.52
815.93	3086.29
816.11	3127.25
816.28	2889.68
816.46	2992.08
816.63	3000.27
816.81	2914.26
816.98	2922.45
817.15	2928.60
817.33	3033.04
817.50	2942.93
817.68	2963.41
817.85	3000.27
818.03	3010.51
818.20	2861.01
818.37	2869.20
818.55	2895.83
818.72	2807.77
818.90	2877.40
819.07	2891.73
819.25	2916.31
819.42	2914.26
819.59	2824.15
819.77	2793.43
819.94	2865.11
820.12	3004.37
820.29	2811.86
820.46	2863.06
820.64	2869.20
820.81	2871.25
820.99	2947.03
821.16	2754.52
821.33	2871.25
821.51	2906.07
821.68	2799.57
821.86	2983.89
822.03	2826.20
822.20	2893.78
822.38	2848.72
822.55	2840.53
822.73	2766.81
822.90	2856.92
823.07	2652.12
823.25	2766.81
823.42	2783.19
823.59	2766.81
823.77	2791.38
823.94	2877.40
824.12	2699.22
824.29	2797.53
824.46	2711.51
824.64	2635.74
824.81	2602.97
824.98	2682.84
825.16	2729.94
825.33	2627.54
825.50	2760.66
825.68	2758.61
825.85	2691.03
826.03	2682.84
826.20	2715.61
826.37	2699.22
826.55	2701.27
826.72	2609.11
826.89	2701.27
827.07	2635.74
827.24	2660.31
827.41	2660.31
827.59	2639.83
827.76	2660.31
827.93	2568.15
828.11	2621.40
828.28	2555.86
828.45	2705.37
828.63	2500.57
828.80	2766.81
828.97	2619.35
829.15	2611.16
829.32	2455.51
829.49	2557.91
829.67	2527.19
829.84	2533.34
830.01	2496.47
830.18	2562.01
830.36	2779.09
830.53	2559.96
830.70	2506.71
830.88	2592.73
831.05	2619.35
831.22	2586.58
831.40	2457.56
831.57	2516.95
831.74	2596.82
831.91	2496.47
832.09	2541.53
832.26	2465.75
832.43	2580.44
832.61	2570.20
832.78	2600.92
832.95	2439.13
833.13	2494.43
833.30	2537.43
833.47	2580.44
833.64	2471.90
833.82	2574.30
833.99	2430.94
834.16	2529.24
834.33	2486.23
834.51	2498.52
834.68	2543.58
834.85	2344.92
835.03	2389.98
835.20	2471.90
835.37	2324.44
835.54	2373.60
835.72	2576.34
835.89	2375.64
836.06	2447.32
836.23	2312.16
836.41	2381.79
836.58	2355.16
836.75	2424.80
836.92	2324.44
837.10	2287.58
837.27	2349.02
837.44	2426.84
837.61	2353.12
837.78	2379.74
837.96	2422.75
838.13	2344.92
838.30	2418.65
838.47	2402.27
838.65	2207.71
838.82	2277.34
838.99	2224.09
839.16	2326.49
839.34	2365.40
839.51	2197.47
839.68	2365.40
839.85	2324.44
840.02	2222.05
840.20	2236.38
840.37	2271.20
840.54	2150.37
840.71	2488.28
840.88	2240.48
841.06	2248.67
841.23	2408.41
841.40	2357.21
841.57	2312.16
841.74	1996.77
841.92	2232.29
842.09	2281.44
842.26	2228.19
842.43	2121.70
842.60	2144.22
842.78	2158.56
842.95	2125.79
843.12	2285.53
843.29	2238.43
843.46	2263.01
843.64	2236.38
843.81	2162.66
843.98	2252.77
844.15	2346.97
844.32	2203.61
844.49	2150.37
844.67	2217.95
844.84	2246.62
845.01	2111.46
845.18	2144.22
845.35	2086.88
845.52	2062.30
845.70	2320.35
845.87	2183.13
846.04	2209.76
846.21	2078.69
846.38	2287.58
846.55	2074.59
846.72	2082.78
846.90	2068.45
847.07	2058.21
847.24	2179.04
847.41	2166.75
847.58	2035.68
847.75	2021.35
847.92	2070.50
848.10	2043.87
848.27	1941.47
848.44	2136.03
848.61	2113.50
848.78	2050.02
848.95	2033.63
849.12	2050.02
849.29	2009.06
849.47	2127.84
849.64	1984.48
849.81	2103.26
849.98	2170.85
850.15	2084.83
850.32	2023.39
850.49	1996.77
850.66	1970.15
850.84	1974.24
851.01	1935.33
851.18	2043.87
851.35	1992.67
851.52	1931.23
851.69	2021.35
851.86	2107.36
852.03	2007.01
852.20	1861.60
852.37	1959.91
852.54	2125.79
852.72	2095.07
852.89	2154.46
853.06	1978.34
853.23	1941.47
853.40	2007.01
853.57	1898.47
853.74	1992.67
853.91	1896.42
854.08	1931.23
854.25	1738.73
854.42	1929.19
854.59	2031.58
854.76	1925.09
854.94	1894.37
855.11	1927.14
855.28	1822.69
855.45	1957.86
855.62	1847.27
855.79	1959.91
855.96	1933.28
856.13	1837.03
856.30	1806.31
856.47	1959.91
856.64	1875.94
856.81	1873.89
856.98	1945.57
857.15	1849.32
857.32	1773.54
857.49	1849.32
857.66	1796.07
857.83	1798.12
858.00	1847.27
858.17	1822.69
858.35	1798.12
858.52	1916.90
858.69	1732.58
858.86	1660.90
859.03	1908.71
859.20	1888.23
859.37	1812.45
859.54	1859.56
859.71	1841.12
859.88	1755.11
860.05	1824.74
860.22	1775.59
860.39	1861.60
860.56	1796.07
860.73	1830.88
860.90	1759.21
861.07	1865.70
861.24	1832.93
861.41	1865.70
861.58	1710.05
861.75	1746.92
861.92	1751.01
862.09	1847.27
862.26	1761.25
862.43	1787.88
862.60	1816.55
862.77	1841.12
862.94	1769.44
863.11	1783.78
863.28	1882.08
863.45	1744.87
863.62	1701.86
863.79	1767.40
863.96	1861.60
864.13	1705.96
864.30	1677.29
864.46	1720.29
864.63	1683.43
864.80	1685.48
864.97	1839.08
865.14	1538.02
865.31	1644.52
865.48	1806.31
865.65	1755.11
865.82	1791.97
865.99	1716.20
866.16	1816.55
866.33	1724.39
866.50	1687.53
866.67	1794.02
866.84	1617.90
867.01	1832.93
867.18	1726.44
867.35	1826.79
867.52	1779.68
867.69	1652.71
867.85	1568.74
868.02	1693.67
868.19	1712.10
868.36	1648.61
868.53	1775.59
868.70	1748.97
868.87	1742.82
869.04	1712.10
869.21	1728.49
869.38	1640.42
869.55	1845.22
869.72	1611.75
869.89	1669.09
870.05	1628.14
870.22	1656.81
870.39	1540.07
870.56	1781.73
870.73	1589.22
870.90	1742.82
871.07	1689.57
871.24	1685.48
871.41	1589.22
871.58	1650.66
871.74	1578.98
871.91	1570.79
872.08	1607.66
872.25	1578.98
872.42	1662.95
872.59	1570.79
872.76	1685.48
872.93	1716.20
873.10	1646.57
873.26	1595.37
873.43	1603.56
873.60	1708.01
873.77	1613.80
873.94	1542.12
874.11	1634.28
874.28	1769.44
874.45	1650.66
874.61	1681.38
874.78	1662.95
874.95	1628.14
875.12	1665.00
875.29	1634.28
875.46	1523.69
875.63	1734.63
875.79	1617.90
875.96	1525.74
876.13	1658.85
876.30	1535.98
876.47	1578.98
876.64	1576.94
876.80	1505.26
876.97	1560.55
877.14	1509.35
877.31	1630.18
877.48	1626.09
877.65	1558.50
877.81	1511.40
877.98	1404.91
878.15	1712.10
878.32	1628.14
878.49	1583.08
878.66	1642.47
878.82	1632.23
878.99	1669.09
879.16	1472.49
879.33	1499.11
879.50	1640.42
879.67	1665.00
879.83	1572.84
880.00	1497.07
880.17	1542.12
880.34	1546.22
880.51	1478.63
880.67	1568.74
880.84	1634.28
881.01	1634.28
881.18	1591.27
881.35	1546.22
881.51	1527.78
881.68	1669.09
881.85	1638.38
882.02	1587.18
882.18	1658.85
882.35	1472.49
882.52	1509.35
882.69	1540.07
882.86	1570.79
883.02	1540.07
883.19	1499.11
883.36	1540.07
883.53	1542.12
883.69	1486.83
883.86	1499.11
884.03	1550.31
884.20	1499.11
884.36	1574.89
884.53	1587.18
884.70	1495.02
884.87	1447.91
885.04	1652.71
885.20	1621.99
885.37	1535.98
885.54	1466.35
885.71	1601.51
885.87	1490.92
886.04	1466.35
886.21	1568.74
886.38	1615.85
886.54	1505.26
886.71	1544.17
886.88	1665.00
>>>>>End Processed Spectral Data<<<<<
