SpectraSuite Data File
++++++++++++++++++++++++++++++++++++
Date: Fri May 01 10:36:14 EST 2015
User: ocean
Dark Spectrum Present: No
Reference Spectrum Present: No
Number of Sampled Component Spectra: 1
Spectrometers: USB4E02642
Integration Time (usec): 150000 (USB4E02642)
Spectra Averaged: 1 (USB4E02642)
Boxcar Smoothing: 0 (USB4E02642)
Correct for Electrical Dark: No (USB4E02642)
Strobe/Lamp Enabled: No (USB4E02642)
Correct for Detector Non-linearity: No (USB4E02642)
Correct for Stray Light: No (USB4E02642)
Number of Pixels in Processed Spectrum: 3648
>>>>>Begin Processed Spectral Data<<<<<
179.22	954.35
179.43	954.35
179.65	954.35
179.86	1083.38
180.08	1081.33
180.29	1267.69
180.51	1249.26
180.72	1298.41
180.94	1325.04
181.15	1206.25
181.37	1384.43
181.58	1228.78
181.80	1290.22
182.01	1241.07
182.23	1292.27
182.44	1380.33
182.66	1247.21
182.87	1292.27
183.09	1271.79
183.30	1288.17
183.52	1376.24
183.73	1279.98
183.95	1368.04
184.16	1245.16
184.38	1351.66
184.59	1306.60
184.81	1284.08
185.02	1390.57
185.24	1282.03
185.45	1300.46
185.67	1355.76
185.88	1298.41
186.10	1173.49
186.31	1341.42
186.53	1302.51
186.74	1226.73
186.96	1349.61
187.17	1357.80
187.39	1302.51
187.60	1325.04
187.81	1472.49
188.03	1406.95
188.24	1306.60
188.46	1306.60
188.67	1511.40
188.89	1265.64
189.10	1454.06
189.32	1357.80
189.53	1308.65
189.75	1456.11
189.96	1388.52
190.18	1261.55
190.39	1241.07
190.61	1269.74
190.82	1279.98
191.04	1415.15
191.25	1388.52
191.46	1388.52
191.68	1337.32
191.89	1355.76
192.11	1253.36
192.32	1296.36
192.54	1265.64
192.75	1277.93
192.97	1353.71
193.18	1275.88
193.40	1345.52
193.61	1378.28
193.83	1384.43
194.04	1366.00
194.25	1347.56
194.47	1357.80
194.68	1327.08
194.90	1241.07
195.11	1402.86
195.33	1279.98
195.54	1406.95
195.76	1380.33
195.97	1296.36
196.18	1380.33
196.40	1419.24
196.61	1232.88
196.83	1374.19
197.04	1388.52
197.26	1466.35
197.47	1398.76
197.69	1300.46
197.90	1325.04
198.11	1269.74
198.33	1261.55
198.54	1290.22
198.76	1415.15
198.97	1380.33
199.19	1333.23
199.40	1290.22
199.61	1314.80
199.83	1243.12
200.04	1284.08
200.26	1370.09
200.47	1302.51
200.69	1316.84
200.90	1400.81
201.11	1261.55
201.33	1257.45
201.54	1460.20
201.76	1386.47
201.97	1327.08
202.19	1366.00
202.40	1421.29
202.61	1333.23
202.83	1177.58
203.04	1341.42
203.26	1363.95
203.47	1341.42
203.68	1431.53
203.90	1335.28
204.11	1298.41
204.33	1226.73
204.54	1439.72
204.75	1290.22
204.97	1314.80
205.18	1210.35
205.40	1263.60
205.61	1327.08
205.83	1509.35
206.04	1318.89
206.25	1353.71
206.47	1366.00
206.68	1437.67
206.90	1345.52
207.11	1288.17
207.32	1198.06
207.54	1304.56
207.75	1390.57
207.97	1277.93
208.18	1310.70
208.39	1257.45
208.61	1263.60
208.82	1349.61
209.03	1394.67
209.25	1380.33
209.46	1382.38
209.68	1265.64
209.89	1298.41
210.10	1331.18
210.32	1329.13
210.53	1368.04
210.75	1402.86
210.96	1273.84
211.17	1251.31
211.39	1361.90
211.60	1230.83
211.82	1284.08
212.03	1257.45
212.24	1318.89
212.46	1337.32
212.67	1271.79
212.88	1173.49
213.10	1292.27
213.31	1349.61
213.53	1421.29
213.74	1441.77
213.95	1411.05
214.17	1384.43
214.38	1363.95
214.59	1286.12
214.81	1488.87
215.02	1325.04
215.23	1232.88
215.45	1239.02
215.66	1253.36
215.88	1372.14
216.09	1282.03
216.30	1406.95
216.52	1304.56
216.73	1157.10
216.94	1331.18
217.16	1396.71
217.37	1441.77
217.58	1327.08
217.80	1476.59
218.01	1333.23
218.22	1433.58
218.44	1275.88
218.65	1333.23
218.87	1269.74
219.08	1372.14
219.29	1386.47
219.51	1363.95
219.72	1318.89
219.93	1398.76
220.15	1404.91
220.36	1320.94
220.57	1341.42
220.79	1265.64
221.00	1204.21
221.21	1409.00
221.43	1325.04
221.64	1310.70
221.85	1320.94
222.07	1341.42
222.28	1292.27
222.49	1372.14
222.71	1196.01
222.92	1357.80
223.13	1224.69
223.35	1263.60
223.56	1402.86
223.77	1265.64
223.99	1279.98
224.20	1437.67
224.41	1288.17
224.63	1409.00
224.84	1253.36
225.05	1456.11
225.27	1388.52
225.48	1445.87
225.69	1269.74
225.91	1200.11
226.12	1372.14
226.33	1394.67
226.55	1271.79
226.76	1282.03
226.97	1243.12
227.19	1347.56
227.40	1296.36
227.61	1308.65
227.82	1355.76
228.04	1306.60
228.25	1255.40
228.46	1341.42
228.68	1386.47
228.89	1392.62
229.10	1273.84
229.32	1294.32
229.53	1269.74
229.74	1306.60
229.96	1284.08
230.17	1314.80
230.38	1400.81
230.59	1300.46
230.81	1267.69
231.02	1202.16
231.23	1153.01
231.45	1429.48
231.66	1339.37
231.87	1353.71
232.09	1394.67
232.30	1279.98
232.51	1339.37
232.72	1372.14
232.94	1218.54
233.15	1548.26
233.36	1261.55
233.58	1292.27
233.79	1288.17
234.00	1316.84
234.21	1282.03
234.43	1335.28
234.64	1335.28
234.85	1404.91
235.07	1308.65
235.28	1423.34
235.49	1343.47
235.70	1505.26
235.92	1357.80
236.13	1337.32
236.34	1394.67
236.56	1234.93
236.77	1351.66
236.98	1337.32
237.19	1353.71
237.41	1406.95
237.62	1316.84
237.83	1423.34
238.04	1429.48
238.26	1314.80
238.47	1337.32
238.68	1402.86
238.89	1269.74
239.11	1400.81
239.32	1374.19
239.53	1310.70
239.75	1241.07
239.96	1257.45
240.17	1279.98
240.38	1255.40
240.60	1359.85
240.81	1306.60
241.02	1312.75
241.23	1329.13
241.45	1411.05
241.66	1296.36
241.87	1361.90
242.08	1372.14
242.30	1314.80
242.51	1357.80
242.72	1204.21
242.93	1228.78
243.15	1341.42
243.36	1454.06
243.57	1331.18
243.78	1339.37
244.00	1417.19
244.21	1144.81
244.42	1372.14
244.63	1306.60
244.85	1226.73
245.06	1277.93
245.27	1447.91
245.48	1296.36
245.70	1355.76
245.91	1456.11
246.12	1327.08
246.33	1351.66
246.54	1474.54
246.76	1296.36
246.97	1271.79
247.18	1243.12
247.39	1322.99
247.61	1480.68
247.82	1333.23
248.03	1261.55
248.24	1370.09
248.45	1320.94
248.67	1398.76
248.88	1357.80
249.09	1308.65
249.30	1353.71
249.52	1431.53
249.73	1292.27
249.94	1282.03
250.15	1224.69
250.36	1275.88
250.58	1480.68
250.79	1325.04
251.00	1372.14
251.21	1419.24
251.43	1384.43
251.64	1521.64
251.85	1267.69
252.06	1218.54
252.27	1392.62
252.49	1386.47
252.70	1335.28
252.91	1292.27
253.12	1314.80
253.33	1409.00
253.55	1331.18
253.76	1279.98
253.97	1257.45
254.18	1335.28
254.39	1331.18
254.61	1292.27
254.82	1353.71
255.03	1378.28
255.24	1366.00
255.45	1329.13
255.67	1310.70
255.88	1388.52
256.09	1279.98
256.30	1339.37
256.51	1503.21
256.73	1357.80
256.94	1179.63
257.15	1411.05
257.36	1314.80
257.57	1476.59
257.78	1308.65
258.00	1351.66
258.21	1355.76
258.42	1314.80
258.63	1300.46
258.84	1394.67
259.06	1234.93
259.27	1349.61
259.48	1404.91
259.69	1337.32
259.90	1204.21
260.11	1406.95
260.33	1300.46
260.54	1329.13
260.75	1366.00
260.96	1296.36
261.17	1366.00
261.38	1404.91
261.60	1366.00
261.81	1300.46
262.02	1357.80
262.23	1329.13
262.44	1368.04
262.65	1296.36
262.87	1335.28
263.08	1404.91
263.29	1300.46
263.50	1316.84
263.71	1331.18
263.92	1353.71
264.13	1439.72
264.35	1386.47
264.56	1394.67
264.77	1447.91
264.98	1308.65
265.19	1216.49
265.40	1267.69
265.62	1325.04
265.83	1314.80
266.04	1388.52
266.25	1386.47
266.46	1255.40
266.67	1372.14
266.88	1370.09
267.10	1306.60
267.31	1357.80
267.52	1296.36
267.73	1292.27
267.94	1322.99
268.15	1271.79
268.36	1224.69
268.57	1437.67
268.79	1406.95
269.00	1357.80
269.21	1300.46
269.42	1300.46
269.63	1372.14
269.84	1275.88
270.05	1277.93
270.27	1308.65
270.48	1310.70
270.69	1243.12
270.90	1335.28
271.11	1279.98
271.32	1384.43
271.53	1316.84
271.74	1271.79
271.96	1298.41
272.17	1378.28
272.38	1349.61
272.59	1200.11
272.80	1279.98
273.01	1366.00
273.22	1308.65
273.43	1411.05
273.64	1273.84
273.86	1441.77
274.07	1306.60
274.28	1335.28
274.49	1413.10
274.70	1351.66
274.91	1359.85
275.12	1464.30
275.33	1193.97
275.54	1284.08
275.76	1306.60
275.97	1292.27
276.18	1361.90
276.39	1357.80
276.60	1372.14
276.81	1359.85
277.02	1339.37
277.23	1284.08
277.44	1249.26
277.65	1232.88
277.86	1419.24
278.08	1415.15
278.29	1341.42
278.50	1478.63
278.71	1296.36
278.92	1368.04
279.13	1202.16
279.34	1327.08
279.55	1329.13
279.76	1349.61
279.97	1212.40
280.18	1515.50
280.40	1345.52
280.61	1275.88
280.82	1296.36
281.03	1304.56
281.24	1427.43
281.45	1341.42
281.66	1239.02
281.87	1269.74
282.08	1390.57
282.29	1366.00
282.50	1251.31
282.71	1218.54
282.92	1492.97
283.13	1482.73
283.35	1263.60
283.56	1322.99
283.77	1284.08
283.98	1370.09
284.19	1312.75
284.40	1253.36
284.61	1318.89
284.82	1357.80
285.03	1486.83
285.24	1210.35
285.45	1298.41
285.66	1386.47
285.87	1304.56
286.08	1265.64
286.29	1411.05
286.50	1300.46
286.71	1333.23
286.93	1308.65
287.14	1351.66
287.35	1361.90
287.56	1353.71
287.77	1402.86
287.98	1302.51
288.19	1396.71
288.40	1275.88
288.61	1312.75
288.82	1347.56
289.03	1462.25
289.24	1398.76
289.45	1511.40
289.66	1312.75
289.87	1394.67
290.08	1312.75
290.29	1292.27
290.50	1359.85
290.71	1220.59
290.92	1458.15
291.13	1314.80
291.34	1386.47
291.55	1253.36
291.76	1263.60
291.97	1234.93
292.18	1267.69
292.39	1337.32
292.61	1374.19
292.82	1247.21
293.03	1452.01
293.24	1167.34
293.45	1220.59
293.66	1300.46
293.87	1341.42
294.08	1277.93
294.29	1196.01
294.50	1441.77
294.71	1454.06
294.92	1294.32
295.13	1404.91
295.34	1312.75
295.55	1292.27
295.76	1355.76
295.97	1363.95
296.18	1396.71
296.39	1347.56
296.60	1382.38
296.81	1294.32
297.02	1214.45
297.23	1382.38
297.44	1384.43
297.65	1316.84
297.86	1372.14
298.07	1247.21
298.28	1361.90
298.49	1314.80
298.70	1322.99
298.91	1355.76
299.12	1216.49
299.33	1243.12
299.54	1279.98
299.75	1239.02
299.96	1314.80
300.17	1327.08
300.38	1288.17
300.59	1204.21
300.80	1370.09
301.01	1304.56
301.22	1327.08
301.43	1359.85
301.64	1284.08
301.85	1161.20
302.06	1382.38
302.27	1271.79
302.48	1507.30
302.69	1251.31
302.89	1322.99
303.10	1308.65
303.31	1216.49
303.52	1337.32
303.73	1388.52
303.94	1337.32
304.15	1255.40
304.36	1275.88
304.57	1267.69
304.78	1394.67
304.99	1298.41
305.20	1267.69
305.41	1406.95
305.62	1372.14
305.83	1269.74
306.04	1206.25
306.25	1339.37
306.46	1329.13
306.67	1437.67
306.88	1357.80
307.09	1333.23
307.30	1316.84
307.51	1386.47
307.72	1355.76
307.93	1263.60
308.14	1325.04
308.35	1236.97
308.55	1384.43
308.76	1243.12
308.97	1273.84
309.18	1402.86
309.39	1353.71
309.60	1224.69
309.81	1388.52
310.02	1204.21
310.23	1202.16
310.44	1251.31
310.65	1312.75
310.86	1374.19
311.07	1394.67
311.28	1337.32
311.49	1294.32
311.70	1378.28
311.91	1296.36
312.11	1361.90
312.32	1337.32
312.53	1298.41
312.74	1363.95
312.95	1230.83
313.16	1386.47
313.37	1314.80
313.58	1173.49
313.79	1247.21
314.00	1337.32
314.21	1198.06
314.42	1228.78
314.63	1255.40
314.83	1331.18
315.04	1390.57
315.25	1341.42
315.46	1386.47
315.67	1343.47
315.88	1288.17
316.09	1329.13
316.30	1314.80
316.51	1325.04
316.72	1279.98
316.93	1196.01
317.13	1316.84
317.34	1218.54
317.55	1503.21
317.76	1236.97
317.97	1263.60
318.18	1335.28
318.39	1384.43
318.60	1333.23
318.81	1243.12
319.02	1388.52
319.23	1439.72
319.43	1331.18
319.64	1359.85
319.85	1286.12
320.06	1298.41
320.27	1304.56
320.48	1339.37
320.69	1452.01
320.90	1253.36
321.11	1302.51
321.31	1325.04
321.52	1290.22
321.73	1406.95
321.94	1343.47
322.15	1243.12
322.36	1386.47
322.57	1386.47
322.78	1198.06
322.98	1439.72
323.19	1341.42
323.40	1306.60
323.61	1316.84
323.82	1226.73
324.03	1279.98
324.24	1396.71
324.45	1366.00
324.65	1251.31
324.86	1335.28
325.07	1452.01
325.28	1359.85
325.49	1331.18
325.70	1306.60
325.91	1333.23
326.12	1267.69
326.32	1284.08
326.53	1273.84
326.74	1353.71
326.95	1406.95
327.16	1300.46
327.37	1492.97
327.58	1267.69
327.78	1290.22
327.99	1304.56
328.20	1271.79
328.41	1273.84
328.62	1308.65
328.83	1273.84
329.04	1249.26
329.24	1298.41
329.45	1214.45
329.66	1339.37
329.87	1345.52
330.08	1370.09
330.29	1345.52
330.49	1374.19
330.70	1263.60
330.91	1298.41
331.12	1314.80
331.33	1261.55
331.54	1345.52
331.74	1236.97
331.95	1366.00
332.16	1382.38
332.37	1251.31
332.58	1363.95
332.79	1218.54
332.99	1363.95
333.20	1370.09
333.41	1359.85
333.62	1357.80
333.83	1259.50
334.04	1320.94
334.24	1366.00
334.45	1183.73
334.66	1302.51
334.87	1298.41
335.08	1329.13
335.29	1261.55
335.49	1306.60
335.70	1349.61
335.91	1406.95
336.12	1431.53
336.33	1267.69
336.53	1239.02
336.74	1322.99
336.95	1355.76
337.16	1314.80
337.37	1296.36
337.57	1312.75
337.78	1327.08
337.99	1452.01
338.20	1261.55
338.41	1193.97
338.62	1312.75
338.82	1431.53
339.03	1253.36
339.24	1267.69
339.45	1333.23
339.65	1234.93
339.86	1241.07
340.07	1400.81
340.28	1347.56
340.49	1398.76
340.69	1288.17
340.90	1394.67
341.11	1355.76
341.32	1308.65
341.53	1243.12
341.73	1300.46
341.94	1378.28
342.15	1347.56
342.36	1402.86
342.57	1480.68
342.77	1273.84
342.98	1314.80
343.19	1290.22
343.40	1267.69
343.60	1318.89
343.81	1304.56
344.02	1322.99
344.23	1404.91
344.44	1200.11
344.64	1234.93
344.85	1384.43
345.06	1294.32
345.27	1267.69
345.47	1234.93
345.68	1327.08
345.89	1263.60
346.10	1474.54
346.30	1212.40
346.51	1308.65
346.72	1423.34
346.93	1329.13
347.13	1292.27
347.34	1351.66
347.55	1331.18
347.76	1370.09
347.97	1376.24
348.17	1302.51
348.38	1273.84
348.59	1320.94
348.80	1298.41
349.00	1292.27
349.21	1308.65
349.42	1376.24
349.63	1421.29
349.83	1304.56
350.04	1279.98
350.25	1312.75
350.45	1251.31
350.66	1261.55
350.87	1353.71
351.08	1261.55
351.28	1488.87
351.49	1224.69
351.70	1384.43
351.91	1243.12
352.11	1312.75
352.32	1298.41
352.53	1306.60
352.74	1267.69
352.94	1349.61
353.15	1216.49
353.36	1282.03
353.56	1316.84
353.77	1288.17
353.98	1384.43
354.19	1398.76
354.39	1224.69
354.60	1216.49
354.81	1366.00
355.02	1314.80
355.22	1349.61
355.43	1263.60
355.64	1214.45
355.84	1411.05
356.05	1239.02
356.26	1400.81
356.47	1243.12
356.67	1349.61
356.88	1406.95
357.09	1257.45
357.29	1349.61
357.50	1398.76
357.71	1228.78
357.92	1388.52
358.12	1275.88
358.33	1372.14
358.54	1222.64
358.74	1456.11
358.95	1349.61
359.16	1392.62
359.36	1214.45
359.57	1357.80
359.78	1366.00
359.98	1322.99
360.19	1275.88
360.40	1396.71
360.61	1411.05
360.81	1347.56
361.02	1208.30
361.23	1265.64
361.43	1292.27
361.64	1335.28
361.85	1388.52
362.05	1423.34
362.26	1271.79
362.47	1316.84
362.67	1224.69
362.88	1404.91
363.09	1236.97
363.29	1239.02
363.50	1269.74
363.71	1265.64
363.91	1337.32
364.12	1425.39
364.33	1325.04
364.53	1413.10
364.74	1337.32
364.95	1259.50
365.15	1259.50
365.36	1193.97
365.57	1384.43
365.77	1357.80
365.98	1368.04
366.19	1425.39
366.39	1333.23
366.60	1302.51
366.81	1196.01
367.01	1454.06
367.22	1314.80
367.43	1306.60
367.63	1243.12
367.84	1347.56
368.05	1357.80
368.25	1269.74
368.46	1325.04
368.67	1318.89
368.87	1288.17
369.08	1255.40
369.29	1226.73
369.49	1308.65
369.70	1347.56
369.91	1300.46
370.11	1333.23
370.32	1253.36
370.52	1345.52
370.73	1406.95
370.94	1214.45
371.14	1341.42
371.35	1396.71
371.56	1411.05
371.76	1333.23
371.97	1454.06
372.18	1193.97
372.38	1200.11
372.59	1296.36
372.79	1325.04
373.00	1202.16
373.21	1349.61
373.41	1314.80
373.62	1247.21
373.83	1202.16
374.03	1279.98
374.24	1374.19
374.44	1312.75
374.65	1423.34
374.86	1355.76
375.06	1304.56
375.27	1318.89
375.47	1325.04
375.68	1343.47
375.89	1404.91
376.09	1478.63
376.30	1267.69
376.50	1325.04
376.71	1384.43
376.92	1251.31
377.12	1345.52
377.33	1284.08
377.54	1269.74
377.74	1343.47
377.95	1437.67
378.15	1298.41
378.36	1296.36
378.57	1396.71
378.77	1427.43
378.98	1259.50
379.18	1255.40
379.39	1341.42
379.59	1245.16
379.80	1232.88
380.01	1308.65
380.21	1404.91
380.42	1245.16
380.62	1333.23
380.83	1200.11
381.04	1292.27
381.24	1353.71
381.45	1386.47
381.65	1292.27
381.86	1169.39
382.06	1341.42
382.27	1298.41
382.48	1322.99
382.68	1380.33
382.89	1398.76
383.09	1411.05
383.30	1265.64
383.51	1366.00
383.71	1363.95
383.92	1288.17
384.12	1286.12
384.33	1339.37
384.53	1187.82
384.74	1325.04
384.94	1402.86
385.15	1347.56
385.36	1419.24
385.56	1306.60
385.77	1288.17
385.97	1257.45
386.18	1224.69
386.38	1249.26
386.59	1302.51
386.79	1320.94
387.00	1259.50
387.21	1269.74
387.41	1404.91
387.62	1376.24
387.82	1294.32
388.03	1306.60
388.23	1259.50
388.44	1267.69
388.64	1292.27
388.85	1345.52
389.06	1318.89
389.26	1443.82
389.47	1343.47
389.67	1255.40
389.88	1492.97
390.08	1181.68
390.29	1304.56
390.49	1286.12
390.70	1431.53
390.90	1333.23
391.11	1296.36
391.31	1343.47
391.52	1181.68
391.72	1361.90
391.93	1202.16
392.13	1269.74
392.34	1269.74
392.55	1345.52
392.75	1322.99
392.96	1230.83
393.16	1378.28
393.37	1304.56
393.57	1255.40
393.78	1275.88
393.98	1374.19
394.19	1390.57
394.39	1282.03
394.60	1431.53
394.80	1308.65
395.01	1363.95
395.21	1454.06
395.42	1335.28
395.62	1236.97
395.83	1267.69
396.03	1343.47
396.24	1480.68
396.44	1435.63
396.65	1435.63
396.85	1310.70
397.06	1320.94
397.26	1212.40
397.47	1222.64
397.67	1427.43
397.88	1265.64
398.08	1202.16
398.29	1316.84
398.49	1335.28
398.70	1310.70
398.90	1222.64
399.11	1243.12
399.31	1370.09
399.52	1241.07
399.72	1286.12
399.93	1363.95
400.13	1230.83
400.34	1380.33
400.54	1357.80
400.75	1363.95
400.95	1312.75
401.15	1411.05
401.36	1255.40
401.56	1300.46
401.77	1310.70
401.97	1271.79
402.18	1322.99
402.38	1255.40
402.59	1284.08
402.79	1308.65
403.00	1341.42
403.20	1355.76
403.41	1279.98
403.61	1308.65
403.82	1255.40
404.02	1327.08
404.22	1296.36
404.43	1251.31
404.63	1341.42
404.84	1343.47
405.04	1173.49
405.25	1331.18
405.45	1294.32
405.66	1251.31
405.86	1279.98
406.07	1404.91
406.27	1284.08
406.47	1314.80
406.68	1294.32
406.88	1322.99
407.09	1318.89
407.29	1337.32
407.50	1218.54
407.70	1302.51
407.91	1198.06
408.11	1368.04
408.31	1288.17
408.52	1304.56
408.72	1169.39
408.93	1343.47
409.13	1406.95
409.34	1435.63
409.54	1359.85
409.74	1417.19
409.95	1138.67
410.15	1243.12
410.36	1290.22
410.56	1196.01
410.77	1357.80
410.97	1210.35
411.17	1341.42
411.38	1269.74
411.58	1384.43
411.79	1296.36
411.99	1322.99
412.19	1327.08
412.40	1335.28
412.60	1400.81
412.81	1327.08
413.01	1384.43
413.22	1333.23
413.42	1251.31
413.62	1347.56
413.83	1347.56
414.03	1284.08
414.24	1304.56
414.44	1388.52
414.64	1325.04
414.85	1302.51
415.05	1361.90
415.26	1306.60
415.46	1232.88
415.66	1241.07
415.87	1177.58
416.07	1304.56
416.28	1253.36
416.48	1370.09
416.68	1374.19
416.89	1413.10
417.09	1363.95
417.29	1216.49
417.50	1265.64
417.70	1230.83
417.91	1292.27
418.11	1243.12
418.31	1273.84
418.52	1357.80
418.72	1251.31
418.93	1271.79
419.13	1245.16
419.33	1279.98
419.54	1234.93
419.74	1253.36
419.94	1327.08
420.15	1257.45
420.35	1202.16
420.56	1265.64
420.76	1282.03
420.96	1298.41
421.17	1296.36
421.37	1282.03
421.57	1253.36
421.78	1304.56
421.98	1308.65
422.18	1386.47
422.39	1279.98
422.59	1218.54
422.80	1251.31
423.00	1269.74
423.20	1257.45
423.41	1269.74
423.61	1296.36
423.81	1320.94
424.02	1322.99
424.22	1302.51
424.42	1322.99
424.63	1247.21
424.83	1288.17
425.03	1294.32
425.24	1347.56
425.44	1341.42
425.64	1277.93
425.85	1357.80
426.05	1366.00
426.25	1302.51
426.46	1296.36
426.66	1404.91
426.86	1392.62
427.07	1288.17
427.27	1288.17
427.47	1640.42
427.68	1257.45
427.88	1363.95
428.08	1413.10
428.29	1286.12
428.49	1265.64
428.69	1486.83
428.90	1198.06
429.10	1214.45
429.30	1380.33
429.51	1243.12
429.71	1284.08
429.91	1218.54
430.12	1378.28
430.32	1464.30
430.52	1239.02
430.72	1269.74
430.93	1284.08
431.13	1349.61
431.33	1341.42
431.54	1382.38
431.74	1298.41
431.94	1275.88
432.15	1363.95
432.35	1353.71
432.55	1204.21
432.76	1189.87
432.96	1341.42
433.16	1275.88
433.36	1390.57
433.57	1200.11
433.77	1452.01
433.97	1316.84
434.18	1286.12
434.38	1275.88
434.58	1394.67
434.78	1296.36
434.99	1380.33
435.19	1357.80
435.39	1243.12
435.60	1333.23
435.80	1546.22
436.00	1261.55
436.20	1320.94
436.41	1243.12
436.61	1357.80
436.81	1290.22
437.02	1292.27
437.22	1320.94
437.42	1298.41
437.62	1359.85
437.83	1314.80
438.03	1353.71
438.23	1320.94
438.43	1339.37
438.64	1277.93
438.84	1343.47
439.04	1284.08
439.25	1363.95
439.45	1435.63
439.65	1259.50
439.85	1351.66
440.06	1292.27
440.26	1292.27
440.46	1454.06
440.66	1341.42
440.87	1310.70
441.07	1314.80
441.27	1413.10
441.47	1232.88
441.68	1409.00
441.88	1325.04
442.08	1284.08
442.28	1388.52
442.49	1439.72
442.69	1433.58
442.89	1222.64
443.09	1187.82
443.30	1204.21
443.50	1341.42
443.70	1400.81
443.90	1196.01
444.10	1327.08
444.31	1355.76
444.51	1226.73
444.71	1382.38
444.91	1243.12
445.12	1316.84
445.32	1476.59
445.52	1298.41
445.72	1243.12
445.93	1292.27
446.13	1282.03
446.33	1454.06
446.53	1378.28
446.73	1290.22
446.94	1226.73
447.14	1333.23
447.34	1165.29
447.54	1333.23
447.74	1361.90
447.95	1357.80
448.15	1288.17
448.35	1423.34
448.55	1275.88
448.76	1193.97
448.96	1347.56
449.16	1333.23
449.36	1333.23
449.56	1269.74
449.77	1355.76
449.97	1288.17
450.17	1232.88
450.37	1253.36
450.57	1406.95
450.78	1357.80
450.98	1245.16
451.18	1318.89
451.38	1218.54
451.58	1263.60
451.79	1257.45
451.99	1304.56
452.19	1200.11
452.39	1456.11
452.59	1271.79
452.79	1345.52
453.00	1325.04
453.20	1384.43
453.40	1220.59
453.60	1484.78
453.80	1325.04
454.01	1318.89
454.21	1171.44
454.41	1253.36
454.61	1329.13
454.81	1402.86
455.01	1300.46
455.22	1298.41
455.42	1343.47
455.62	1421.29
455.82	1357.80
456.02	1310.70
456.22	1312.75
456.43	1419.24
456.63	1208.30
456.83	1284.08
457.03	1341.42
457.23	1339.37
457.43	1259.50
457.64	1374.19
457.84	1298.41
458.04	1333.23
458.24	1273.84
458.44	1292.27
458.64	1333.23
458.84	1392.62
459.05	1298.41
459.25	1308.65
459.45	1329.13
459.65	1343.47
459.85	1282.03
460.05	1288.17
460.25	1363.95
460.46	1366.00
460.66	1378.28
460.86	1267.69
461.06	1361.90
461.26	1320.94
461.46	1306.60
461.66	1314.80
461.87	1380.33
462.07	1273.84
462.27	1447.91
462.47	1312.75
462.67	1308.65
462.87	1447.91
463.07	1316.84
463.27	1316.84
463.48	1241.07
463.68	1322.99
463.88	1210.35
464.08	1366.00
464.28	1306.60
464.48	1255.40
464.68	1275.88
464.88	1325.04
465.08	1257.45
465.29	1349.61
465.49	1320.94
465.69	1357.80
465.89	1386.47
466.09	1335.28
466.29	1294.32
466.49	1333.23
466.69	1290.22
466.89	1292.27
467.10	1380.33
467.30	1296.36
467.50	1488.87
467.70	1224.69
467.90	1337.32
468.10	1357.80
468.30	1261.55
468.50	1316.84
468.70	1355.76
468.90	1279.98
469.10	1261.55
469.31	1372.14
469.51	1404.91
469.71	1249.26
469.91	1329.13
470.11	1347.56
470.31	1366.00
470.51	1343.47
470.71	1292.27
470.91	1304.56
471.11	1286.12
471.31	1329.13
471.51	1423.34
471.71	1255.40
471.92	1398.76
472.12	1290.22
472.32	1368.04
472.52	1327.08
472.72	1363.95
472.92	1380.33
473.12	1296.36
473.32	1304.56
473.52	1370.09
473.72	1456.11
473.92	1325.04
474.12	1396.71
474.32	1398.76
474.52	1409.00
474.72	1261.55
474.92	1333.23
475.13	1353.71
475.33	1329.13
475.53	1325.04
475.73	1406.95
475.93	1376.24
476.13	1361.90
476.33	1349.61
476.53	1302.51
476.73	1271.79
476.93	1355.76
477.13	1347.56
477.33	1394.67
477.53	1327.08
477.73	1447.91
477.93	1349.61
478.13	1466.35
478.33	1423.34
478.53	1449.96
478.73	1423.34
478.93	1322.99
479.13	1312.75
479.33	1286.12
479.53	1454.06
479.73	1431.53
479.93	1265.64
480.13	1396.71
480.33	1447.91
480.53	1390.57
480.73	1345.52
480.93	1439.72
481.13	1284.08
481.34	1318.89
481.54	1312.75
481.74	1429.48
481.94	1394.67
482.14	1454.06
482.34	1320.94
482.54	1331.18
482.74	1458.15
482.94	1492.97
483.14	1456.11
483.34	1482.73
483.54	1501.16
483.74	1445.87
483.94	1468.39
484.14	1458.15
484.34	1347.56
484.54	1544.17
484.74	1519.59
484.94	1474.54
485.14	1503.21
485.34	1554.41
485.54	1495.02
485.74	1529.83
485.93	1583.08
486.13	1527.78
486.33	1480.68
486.53	1593.32
486.73	1642.47
486.93	1562.60
487.13	1544.17
487.33	1574.89
487.53	1466.35
487.73	1611.75
487.93	1585.13
488.13	1613.80
488.33	1583.08
488.53	1724.39
488.73	1646.57
488.93	1581.03
489.13	1630.18
489.33	1779.68
489.53	1785.83
489.73	1693.67
489.93	1802.21
490.13	1560.55
490.33	1888.23
490.53	1832.93
490.73	1800.16
490.93	1855.46
491.13	1904.61
491.33	1861.60
491.53	1882.08
491.73	2002.91
491.93	1918.95
492.12	2093.02
492.32	1972.19
492.52	2031.58
492.72	2013.15
492.92	2060.26
493.12	2009.06
493.32	2164.70
493.52	2103.26
493.72	2103.26
493.92	2205.66
494.12	2211.81
494.32	2189.28
494.52	2152.42
494.72	2176.99
494.92	2275.29
495.12	2125.79
495.31	2107.36
495.51	2299.87
495.71	2385.88
495.91	2326.49
496.11	2189.28
496.31	2324.44
496.51	2396.12
496.71	2164.70
496.91	2316.25
497.11	2326.49
497.31	2244.57
497.51	2265.05
497.71	2389.98
497.90	2260.96
498.10	2234.33
498.30	2396.12
498.50	2183.13
498.70	2408.41
498.90	2349.02
499.10	2064.35
499.30	2217.95
499.50	2195.42
499.70	2121.70
499.89	2072.54
500.09	2054.11
500.29	2004.96
500.49	2201.57
500.69	2078.69
500.89	2033.63
501.09	1957.86
501.29	2060.26
501.49	2062.30
501.69	1892.32
501.88	2047.97
502.08	1767.40
502.28	1779.68
502.48	1939.43
502.68	1865.70
502.88	1697.77
503.08	1812.45
503.28	1718.25
503.47	1679.33
503.67	1748.97
503.87	1689.57
504.07	1714.15
504.27	1611.75
504.47	1568.74
504.67	1730.53
504.87	1576.94
505.06	1558.50
505.26	1452.01
505.46	1456.11
505.66	1572.84
505.86	1562.60
506.06	1521.64
506.26	1480.68
506.45	1460.20
506.65	1542.12
506.85	1474.54
507.05	1462.25
507.25	1390.57
507.45	1443.82
507.65	1447.91
507.84	1466.35
508.04	1480.68
508.24	1232.88
508.44	1533.93
508.64	1427.43
508.84	1390.57
509.04	1456.11
509.23	1429.48
509.43	1482.73
509.63	1394.67
509.83	1355.76
510.03	1325.04
510.23	1341.42
510.42	1341.42
510.62	1423.34
510.82	1363.95
511.02	1587.18
511.22	1325.04
511.42	1294.32
511.61	1441.77
511.81	1452.01
512.01	1347.56
512.21	1345.52
512.41	1343.47
512.60	1335.28
512.80	1378.28
513.00	1478.63
513.20	1322.99
513.40	1347.56
513.60	1406.95
513.79	1437.67
513.99	1411.05
514.19	1443.82
514.39	1392.62
514.59	1386.47
514.78	1390.57
514.98	1425.39
515.18	1402.86
515.38	1460.20
515.58	1466.35
515.77	1460.20
515.97	1284.08
516.17	1368.04
516.37	1421.29
516.57	1404.91
516.76	1499.11
516.96	1435.63
517.16	1388.52
517.36	1384.43
517.56	1370.09
517.75	1402.86
517.95	1423.34
518.15	1353.71
518.35	1386.47
518.55	1456.11
518.74	1431.53
518.94	1400.81
519.14	1314.80
519.34	1302.51
519.53	1449.96
519.73	1314.80
519.93	1347.56
520.13	1458.15
520.32	1316.84
520.52	1366.00
520.72	1470.44
520.92	1421.29
521.12	1439.72
521.31	1484.78
521.51	1421.29
521.71	1355.76
521.91	1368.04
522.10	1308.65
522.30	1507.30
522.50	1413.10
522.70	1525.74
522.89	1333.23
523.09	1429.48
523.29	1380.33
523.49	1415.15
523.68	1378.28
523.88	1447.91
524.08	1564.65
524.28	1441.77
524.47	1452.01
524.67	1363.95
524.87	1351.66
525.07	1417.19
525.26	1497.07
525.46	1462.25
525.66	1525.74
525.86	1531.88
526.05	1419.24
526.25	1425.39
526.45	1441.77
526.64	1312.75
526.84	1374.19
527.04	1425.39
527.24	1472.49
527.43	1415.15
527.63	1515.50
527.83	1456.11
528.03	1406.95
528.22	1435.63
528.42	1460.20
528.62	1617.90
528.81	1423.34
529.01	1449.96
529.21	1392.62
529.41	1538.02
529.60	1447.91
529.80	1568.74
530.00	1437.67
530.19	1404.91
530.39	1445.87
530.59	1492.97
530.79	1400.81
530.98	1357.80
531.18	1204.21
531.38	1259.50
531.57	1552.36
531.77	1347.56
531.97	1468.39
532.16	1378.28
532.36	1415.15
532.56	1374.19
532.76	1425.39
532.95	1439.72
533.15	1484.78
533.35	1366.00
533.54	1478.63
533.74	1421.29
533.94	1533.93
534.13	1343.47
534.33	1529.83
534.53	1366.00
534.72	1472.49
534.92	1454.06
535.12	1427.43
535.31	1400.81
535.51	1400.81
535.71	1392.62
535.90	1595.37
536.10	1437.67
536.30	1368.04
536.49	1452.01
536.69	1429.48
536.89	1421.29
537.08	1529.83
537.28	1298.41
537.48	1599.46
537.67	1478.63
537.87	1558.50
538.07	1390.57
538.26	1302.51
538.46	1427.43
538.66	1400.81
538.85	1423.34
539.05	1681.38
539.25	1372.14
539.44	1488.87
539.64	1439.72
539.84	1558.50
540.03	1425.39
540.23	1458.15
540.42	1437.67
540.62	1624.04
540.82	1382.38
541.01	1411.05
541.21	1396.71
541.41	1466.35
541.60	1366.00
541.80	1394.67
542.00	1376.24
542.19	1431.53
542.39	1343.47
542.58	1402.86
542.78	1402.86
542.98	1419.24
543.17	1361.90
543.37	1427.43
543.57	1429.48
543.76	1413.10
543.96	1470.44
544.15	1523.69
544.35	1423.34
544.55	1337.32
544.74	1400.81
544.94	1519.59
545.13	1409.00
545.33	1533.93
545.53	1419.24
545.72	1449.96
545.92	1435.63
546.11	1458.15
546.31	1353.71
546.51	1499.11
546.70	1535.98
546.90	1523.69
547.09	1376.24
547.29	1400.81
547.49	1374.19
547.68	1431.53
547.88	1468.39
548.07	1499.11
548.27	1404.91
548.47	1470.44
548.66	1486.83
548.86	1394.67
549.05	1378.28
549.25	1419.24
549.45	1363.95
549.64	1355.76
549.84	1456.11
550.03	1482.73
550.23	1478.63
550.42	1472.49
550.62	1433.58
550.82	1282.03
551.01	1431.53
551.21	1427.43
551.40	1425.39
551.60	1361.90
551.79	1603.56
551.99	1427.43
552.19	1316.84
552.38	1304.56
552.58	1488.87
552.77	1443.82
552.97	1456.11
553.16	1447.91
553.36	1431.53
553.55	1368.04
553.75	1417.19
553.95	1335.28
554.14	1472.49
554.34	1417.19
554.53	1476.59
554.73	1458.15
554.92	1419.24
555.12	1423.34
555.31	1413.10
555.51	1382.38
555.70	1456.11
555.90	1468.39
556.09	1363.95
556.29	1425.39
556.49	1357.80
556.68	1443.82
556.88	1421.29
557.07	1417.19
557.27	1347.56
557.46	1470.44
557.66	1433.58
557.85	1380.33
558.05	1421.29
558.24	1402.86
558.44	1398.76
558.63	1458.15
558.83	1349.61
559.02	1433.58
559.22	1380.33
559.41	1441.77
559.61	1527.78
559.80	1484.78
560.00	1394.67
560.19	1404.91
560.39	1431.53
560.58	1599.46
560.78	1349.61
560.97	1548.26
561.17	1380.33
561.36	1435.63
561.56	1429.48
561.75	1490.92
561.95	1456.11
562.14	1458.15
562.34	1400.81
562.53	1441.77
562.73	1378.28
562.92	1411.05
563.12	1333.23
563.31	1417.19
563.51	1376.24
563.70	1490.92
563.90	1419.24
564.09	1349.61
564.29	1521.64
564.48	1372.14
564.68	1409.00
564.87	1470.44
565.07	1386.47
565.26	1333.23
565.46	1452.01
565.65	1447.91
565.85	1394.67
566.04	1390.57
566.24	1380.33
566.43	1366.00
566.63	1312.75
566.82	1361.90
567.01	1308.65
567.21	1474.54
567.40	1452.01
567.60	1406.95
567.79	1435.63
567.99	1423.34
568.18	1439.72
568.38	1443.82
568.57	1511.40
568.77	1415.15
568.96	1486.83
569.15	1484.78
569.35	1400.81
569.54	1595.37
569.74	1378.28
569.93	1382.38
570.13	1492.97
570.32	1439.72
570.52	1462.25
570.71	1462.25
570.90	1472.49
571.10	1456.11
571.29	1449.96
571.49	1378.28
571.68	1390.57
571.88	1550.31
572.07	1325.04
572.26	1509.35
572.46	1409.00
572.65	1421.29
572.85	1427.43
573.04	1433.58
573.24	1337.32
573.43	1460.20
573.62	1546.22
573.82	1439.72
574.01	1409.00
574.21	1402.86
574.40	1427.43
574.59	1419.24
574.79	1452.01
574.98	1460.20
575.18	1394.67
575.37	1484.78
575.56	1341.42
575.76	1349.61
575.95	1443.82
576.15	1327.08
576.34	1376.24
576.53	1357.80
576.73	1433.58
576.92	1353.71
577.12	1353.71
577.31	1538.02
577.50	1341.42
577.70	1359.85
577.89	1398.76
578.09	1583.08
578.28	1380.33
578.47	1423.34
578.67	1546.22
578.86	1484.78
579.06	1419.24
579.25	1380.33
579.44	1370.09
579.64	1597.42
579.83	1374.19
580.02	1513.45
580.22	1433.58
580.41	1413.10
580.61	1497.07
580.80	1343.47
580.99	1456.11
581.19	1550.31
581.38	1472.49
581.57	1501.16
581.77	1452.01
581.96	1292.27
582.15	1501.16
582.35	1468.39
582.54	1400.81
582.73	1521.64
582.93	1447.91
583.12	1435.63
583.32	1390.57
583.51	1443.82
583.70	1458.15
583.90	1533.93
584.09	1396.71
584.28	1578.98
584.48	1478.63
584.67	1411.05
584.86	1345.52
585.06	1519.59
585.25	1417.19
585.44	1452.01
585.64	1431.53
585.83	1503.21
586.02	1429.48
586.22	1476.59
586.41	1423.34
586.60	1474.54
586.80	1372.14
586.99	1398.76
587.18	1415.15
587.38	1425.39
587.57	1431.53
587.76	1433.58
587.96	1472.49
588.15	1560.55
588.34	1380.33
588.53	1464.30
588.73	1441.77
588.92	1441.77
589.11	1550.31
589.31	1470.44
589.50	1497.07
589.69	1415.15
589.89	1417.19
590.08	1361.90
590.27	1433.58
590.47	1437.67
590.66	1452.01
590.85	1497.07
591.04	1390.57
591.24	1415.15
591.43	1423.34
591.62	1374.19
591.82	1353.71
592.01	1482.73
592.20	1535.98
592.39	1531.88
592.59	1552.36
592.78	1468.39
592.97	1507.30
593.17	1464.30
593.36	1345.52
593.55	1462.25
593.74	1447.91
593.94	1540.07
594.13	1327.08
594.32	1382.38
594.52	1544.17
594.71	1470.44
594.90	1462.25
595.09	1476.59
595.29	1382.38
595.48	1439.72
595.67	1439.72
595.86	1386.47
596.06	1495.02
596.25	1376.24
596.44	1435.63
596.63	1402.86
596.83	1394.67
597.02	1439.72
597.21	1316.84
597.40	1576.94
597.60	1490.92
597.79	1456.11
597.98	1382.38
598.17	1409.00
598.37	1550.31
598.56	1368.04
598.75	1368.04
598.94	1478.63
599.14	1390.57
599.33	1423.34
599.52	1413.10
599.71	1464.30
599.91	1529.83
600.10	1390.57
600.29	1419.24
600.48	1519.59
600.68	1476.59
600.87	1472.49
601.06	1533.93
601.25	1529.83
601.44	1519.59
601.64	1464.30
601.83	1576.94
602.02	1445.87
602.21	1519.59
602.41	1472.49
602.60	1521.64
602.79	1368.04
602.98	1519.59
603.17	1402.86
603.37	1511.40
603.56	1550.31
603.75	1384.43
603.94	1402.86
604.13	1351.66
604.33	1517.54
604.52	1376.24
604.71	1368.04
604.90	1427.43
605.09	1519.59
605.29	1568.74
605.48	1531.88
605.67	1445.87
605.86	1462.25
606.05	1529.83
606.25	1443.82
606.44	1380.33
606.63	1544.17
606.82	1419.24
607.01	1452.01
607.20	1445.87
607.40	1525.74
607.59	1519.59
607.78	1456.11
607.97	1509.35
608.16	1517.54
608.36	1521.64
608.55	1427.43
608.74	1562.60
608.93	1644.52
609.12	1454.06
609.31	1380.33
609.51	1417.19
609.70	1595.37
609.89	1417.19
610.08	1533.93
610.27	1464.30
610.46	1501.16
610.66	1492.97
610.85	1378.28
611.04	1513.45
611.23	1400.81
611.42	1503.21
611.61	1419.24
611.80	1472.49
612.00	1564.65
612.19	1501.16
612.38	1447.91
612.57	1484.78
612.76	1546.22
612.95	1683.43
613.14	1552.36
613.34	1456.11
613.53	1392.62
613.72	1548.26
613.91	1298.41
614.10	1476.59
614.29	1519.59
614.48	1452.01
614.67	1316.84
614.87	1538.02
615.06	1452.01
615.25	1576.94
615.44	1552.36
615.63	1366.00
615.82	1460.20
616.01	1433.58
616.20	1382.38
616.40	1376.24
616.59	1558.50
616.78	1384.43
616.97	1583.08
617.16	1378.28
617.35	1540.07
617.54	1630.18
617.73	1525.74
617.92	1486.83
618.12	1357.80
618.31	1503.21
618.50	1486.83
618.69	1480.68
618.88	1482.73
619.07	1452.01
619.26	1542.12
619.45	1511.40
619.64	1423.34
619.83	1474.54
620.02	1419.24
620.22	1384.43
620.41	1404.91
620.60	1476.59
620.79	1523.69
620.98	1308.65
621.17	1300.46
621.36	1595.37
621.55	1327.08
621.74	1535.98
621.93	1542.12
622.12	1628.14
622.31	1423.34
622.51	1517.54
622.70	1361.90
622.89	1517.54
623.08	1603.56
623.27	1478.63
623.46	1398.76
623.65	1529.83
623.84	1431.53
624.03	1470.44
624.22	1509.35
624.41	1460.20
624.60	1431.53
624.79	1472.49
624.98	1562.60
625.17	1466.35
625.36	1501.16
625.55	1452.01
625.74	1443.82
625.94	1499.11
626.13	1464.30
626.32	1476.59
626.51	1439.72
626.70	1396.71
626.89	1425.39
627.08	1478.63
627.27	1550.31
627.46	1484.78
627.65	1423.34
627.84	1398.76
628.03	1576.94
628.22	1445.87
628.41	1597.42
628.60	1382.38
628.79	1368.04
628.98	1445.87
629.17	1380.33
629.36	1458.15
629.55	1501.16
629.74	1624.04
629.93	1433.58
630.12	1497.07
630.31	1570.79
630.50	1486.83
630.69	1546.22
630.88	1374.19
631.07	1470.44
631.26	1447.91
631.45	1363.95
631.64	1542.12
631.83	1490.92
632.02	1613.80
632.21	1400.81
632.40	1544.17
632.59	1529.83
632.78	1396.71
632.97	1443.82
633.16	1550.31
633.35	1374.19
633.54	1390.57
633.73	1396.71
633.92	1396.71
634.11	1474.54
634.30	1345.52
634.49	1447.91
634.68	1443.82
634.87	1476.59
635.06	1417.19
635.25	1386.47
635.44	1482.73
635.63	1445.87
635.82	1540.07
636.01	1374.19
636.20	1603.56
636.39	1480.68
636.58	1511.40
636.77	1507.30
636.96	1427.43
637.15	1564.65
637.34	1660.90
637.53	1462.25
637.72	1449.96
637.91	1472.49
638.09	1595.37
638.28	1472.49
638.47	1355.76
638.66	1431.53
638.85	1425.39
639.04	1540.07
639.23	1452.01
639.42	1464.30
639.61	1429.48
639.80	1474.54
639.99	1576.94
640.18	1492.97
640.37	1724.39
640.56	1402.86
640.75	1390.57
640.94	1548.26
641.13	1441.77
641.32	1492.97
641.50	1447.91
641.69	1476.59
641.88	1374.19
642.07	1568.74
642.26	1488.87
642.45	1548.26
642.64	1484.78
642.83	1488.87
643.02	1523.69
643.21	1429.48
643.40	1595.37
643.59	1402.86
643.77	1349.61
643.96	1578.98
644.15	1542.12
644.34	1492.97
644.53	1370.09
644.72	1519.59
644.91	1482.73
645.10	1488.87
645.29	1470.44
645.48	1476.59
645.67	1519.59
645.85	1458.15
646.04	1470.44
646.23	1499.11
646.42	1460.20
646.61	1413.10
646.80	1501.16
646.99	1454.06
647.18	1470.44
647.37	1464.30
647.55	1505.26
647.74	1576.94
647.93	1447.91
648.12	1458.15
648.31	1503.21
648.50	1472.49
648.69	1519.59
648.88	1433.58
649.06	1542.12
649.25	1345.52
649.44	1359.85
649.63	1443.82
649.82	1472.49
650.01	1464.30
650.20	1495.02
650.39	1474.54
650.57	1513.45
650.76	1574.89
650.95	1574.89
651.14	1554.41
651.33	1521.64
651.52	1400.81
651.70	1492.97
651.89	1421.29
652.08	1443.82
652.27	1564.65
652.46	1589.22
652.65	1490.92
652.84	1400.81
653.02	1529.83
653.21	1437.67
653.40	1423.34
653.59	1406.95
653.78	1445.87
653.97	1380.33
654.15	1554.41
654.34	1495.02
654.53	1376.24
654.72	1445.87
654.91	1427.43
655.10	1439.72
655.28	1533.93
655.47	1492.97
655.66	1415.15
655.85	1568.74
656.04	1400.81
656.23	1419.24
656.41	1488.87
656.60	1435.63
656.79	1531.88
656.98	1445.87
657.17	1425.39
657.35	1480.68
657.54	1413.10
657.73	1409.00
657.92	1452.01
658.11	1542.12
658.29	1363.95
658.48	1425.39
658.67	1464.30
658.86	1544.17
659.05	1464.30
659.23	1480.68
659.42	1353.71
659.61	1486.83
659.80	1413.10
659.99	1513.45
660.17	1533.93
660.36	1497.07
660.55	1509.35
660.74	1562.60
660.92	1447.91
661.11	1429.48
661.30	1484.78
661.49	1490.92
661.68	1355.76
661.86	1470.44
662.05	1509.35
662.24	1525.74
662.43	1497.07
662.61	1449.96
662.80	1544.17
662.99	1423.34
663.18	1562.60
663.37	1396.71
663.55	1566.70
663.74	1589.22
663.93	1368.04
664.12	1595.37
664.30	1525.74
664.49	1476.59
664.68	1476.59
664.87	1458.15
665.05	1472.49
665.24	1486.83
665.43	1552.36
665.62	1427.43
665.80	1572.84
665.99	1574.89
666.18	1472.49
666.37	1486.83
666.55	1435.63
666.74	1363.95
666.93	1486.83
667.11	1366.00
667.30	1452.01
667.49	1505.26
667.68	1513.45
667.86	1415.15
668.05	1519.59
668.24	1488.87
668.43	1433.58
668.61	1468.39
668.80	1480.68
668.99	1484.78
669.17	1621.99
669.36	1501.16
669.55	1454.06
669.74	1460.20
669.92	1454.06
670.11	1462.25
670.30	1533.93
670.48	1538.02
670.67	1415.15
670.86	1535.98
671.05	1437.67
671.23	1460.20
671.42	1425.39
671.61	1468.39
671.79	1464.30
671.98	1347.56
672.17	1460.20
672.35	1527.78
672.54	1480.68
672.73	1421.29
672.91	1554.41
673.10	1384.43
673.29	1374.19
673.48	1488.87
673.66	1431.53
673.85	1513.45
674.04	1513.45
674.22	1597.42
674.41	1501.16
674.60	1529.83
674.78	1382.38
674.97	1495.02
675.16	1466.35
675.34	1435.63
675.53	1531.88
675.72	1591.27
675.90	1505.26
676.09	1388.52
676.28	1574.89
676.46	1538.02
676.65	1540.07
676.84	1486.83
677.02	1621.99
677.21	1445.87
677.40	1503.21
677.58	1538.02
677.77	1484.78
677.95	1466.35
678.14	1445.87
678.33	1462.25
678.51	1513.45
678.70	1538.02
678.89	1460.20
679.07	1413.10
679.26	1423.34
679.45	1535.98
679.63	1585.13
679.82	1583.08
680.01	1492.97
680.19	1525.74
680.38	1503.21
680.56	1497.07
680.75	1595.37
680.94	1540.07
681.12	1482.73
681.31	1513.45
681.50	1402.86
681.68	1415.15
681.87	1433.58
682.05	1527.78
682.24	1581.03
682.43	1456.11
682.61	1540.07
682.80	1472.49
682.98	1447.91
683.17	1525.74
683.36	1517.54
683.54	1478.63
683.73	1566.70
683.91	1632.23
684.10	1431.53
684.29	1521.64
684.47	1554.41
684.66	1601.51
684.84	1488.87
685.03	1433.58
685.22	1452.01
685.40	1525.74
685.59	1486.83
685.77	1681.38
685.96	1658.85
686.15	1548.26
686.33	1458.15
686.52	1435.63
686.70	1576.94
686.89	1486.83
687.07	1503.21
687.26	1398.76
687.45	1480.68
687.63	1427.43
687.82	1558.50
688.00	1544.17
688.19	1558.50
688.37	1460.20
688.56	1499.11
688.75	1591.27
688.93	1599.46
689.12	1511.40
689.30	1488.87
689.49	1507.30
689.67	1480.68
689.86	1439.72
690.04	1476.59
690.23	1413.10
690.42	1566.70
690.60	1568.74
690.79	1511.40
690.97	1535.98
691.16	1458.15
691.34	1621.99
691.53	1488.87
691.71	1566.70
691.90	1605.61
692.08	1478.63
692.27	1521.64
692.45	1554.41
692.64	1470.44
692.83	1628.14
693.01	1521.64
693.20	1521.64
693.38	1456.11
693.57	1652.71
693.75	1382.38
693.94	1423.34
694.12	1609.70
694.31	1587.18
694.49	1517.54
694.68	1529.83
694.86	1542.12
695.05	1505.26
695.23	1552.36
695.42	1595.37
695.60	1583.08
695.79	1578.98
695.97	1531.88
696.16	1521.64
696.34	1423.34
696.53	1464.30
696.71	1638.38
696.90	1560.55
697.08	1511.40
697.27	1652.71
697.45	1492.97
697.64	1531.88
697.82	1554.41
698.01	1638.38
698.19	1697.77
698.38	1490.92
698.56	1529.83
698.75	1585.13
698.93	1492.97
699.12	1552.36
699.30	1544.17
699.49	1527.78
699.67	1484.78
699.86	1402.86
700.04	1544.17
700.22	1476.59
700.41	1589.22
700.59	1607.66
700.78	1521.64
700.96	1554.41
701.15	1470.44
701.33	1533.93
701.52	1456.11
701.70	1552.36
701.89	1587.18
702.07	1480.68
702.26	1601.51
702.44	1507.30
702.62	1476.59
702.81	1484.78
702.99	1515.50
703.18	1538.02
703.36	1556.46
703.55	1513.45
703.73	1578.98
703.92	1554.41
704.10	1488.87
704.28	1628.14
704.47	1568.74
704.65	1529.83
704.84	1523.69
705.02	1429.48
705.21	1562.60
705.39	1603.56
705.57	1583.08
705.76	1535.98
705.94	1546.22
706.13	1570.79
706.31	1466.35
706.50	1542.12
706.68	1490.92
706.86	1488.87
707.05	1568.74
707.23	1507.30
707.42	1632.23
707.60	1499.11
707.78	1585.13
707.97	1533.93
708.15	1609.70
708.34	1480.68
708.52	1495.02
708.70	1511.40
708.89	1531.88
709.07	1503.21
709.26	1501.16
709.44	1591.27
709.62	1482.73
709.81	1462.25
709.99	1564.65
710.18	1603.56
710.36	1521.64
710.54	1558.50
710.73	1652.71
710.91	1464.30
711.10	1597.42
711.28	1546.22
711.46	1593.32
711.65	1564.65
711.83	1507.30
712.01	1683.43
712.20	1421.29
712.38	1574.89
712.57	1562.60
712.75	1515.50
712.93	1617.90
713.12	1593.32
713.30	1454.06
713.48	1449.96
713.67	1452.01
713.85	1499.11
714.03	1619.94
714.22	1636.33
714.40	1495.02
714.58	1466.35
714.77	1751.01
714.95	1456.11
715.14	1472.49
715.32	1552.36
715.50	1628.14
715.69	1513.45
715.87	1509.35
716.05	1562.60
716.24	1519.59
716.42	1562.60
716.60	1515.50
716.79	1574.89
716.97	1464.30
717.15	1523.69
717.34	1587.18
717.52	1535.98
717.70	1646.57
717.89	1427.43
718.07	1474.54
718.25	1413.10
718.44	1591.27
718.62	1492.97
718.80	1535.98
718.98	1538.02
719.17	1517.54
719.35	1613.80
719.53	1646.57
719.72	1433.58
719.90	1601.51
720.08	1595.37
720.27	1497.07
720.45	1642.47
720.63	1574.89
720.82	1564.65
721.00	1490.92
721.18	1486.83
721.36	1619.94
721.55	1570.79
721.73	1529.83
721.91	1615.85
722.10	1621.99
722.28	1427.43
722.46	1558.50
722.64	1456.11
722.83	1447.91
723.01	1695.72
723.19	1529.83
723.38	1480.68
723.56	1568.74
723.74	1519.59
723.92	1552.36
724.11	1607.66
724.29	1460.20
724.47	1464.30
724.65	1583.08
724.84	1558.50
725.02	1636.33
725.20	1615.85
725.39	1472.49
725.57	1572.84
725.75	1673.19
725.93	1718.25
726.12	1675.24
726.30	1511.40
726.48	1568.74
726.66	1562.60
726.85	1361.90
727.03	1550.31
727.21	1613.80
727.39	1619.94
727.58	1558.50
727.76	1441.77
727.94	1495.02
728.12	1538.02
728.30	1519.59
728.49	1499.11
728.67	1488.87
728.85	1519.59
729.03	1431.53
729.22	1654.76
729.40	1566.70
729.58	1613.80
729.76	1480.68
729.95	1525.74
730.13	1513.45
730.31	1503.21
730.49	1669.09
730.67	1476.59
730.86	1581.03
731.04	1578.98
731.22	1480.68
731.40	1511.40
731.58	1497.07
731.77	1615.85
731.95	1521.64
732.13	1519.59
732.31	1454.06
732.50	1630.18
732.68	1447.91
732.86	1578.98
733.04	1435.63
733.22	1501.16
733.40	1439.72
733.59	1511.40
733.77	1484.78
733.95	1505.26
734.13	1480.68
734.31	1615.85
734.50	1519.59
734.68	1601.51
734.86	1632.23
735.04	1523.69
735.22	1458.15
735.41	1615.85
735.59	1515.50
735.77	1490.92
735.95	1589.22
736.13	1550.31
736.31	1525.74
736.50	1515.50
736.68	1658.85
736.86	1570.79
737.04	1480.68
737.22	1554.41
737.40	1492.97
737.59	1568.74
737.77	1576.94
737.95	1558.50
738.13	1490.92
738.31	1548.26
738.49	1572.84
738.67	1499.11
738.86	1542.12
739.04	1562.60
739.22	1538.02
739.40	1462.25
739.58	1726.44
739.76	1478.63
739.94	1546.22
740.13	1654.76
740.31	1535.98
740.49	1509.35
740.67	1535.98
740.85	1529.83
741.03	1525.74
741.21	1570.79
741.39	1495.02
741.58	1472.49
741.76	1662.95
741.94	1499.11
742.12	1546.22
742.30	1464.30
742.48	1581.03
742.66	1585.13
742.84	1550.31
743.03	1456.11
743.21	1597.42
743.39	1624.04
743.57	1603.56
743.75	1585.13
743.93	1531.88
744.11	1482.73
744.29	1632.23
744.47	1529.83
744.65	1568.74
744.84	1644.52
745.02	1443.82
745.20	1527.78
745.38	1468.39
745.56	1441.77
745.74	1513.45
745.92	1597.42
746.10	1554.41
746.28	1449.96
746.46	1546.22
746.64	1495.02
746.82	1566.70
747.01	1423.34
747.19	1495.02
747.37	1507.30
747.55	1638.38
747.73	1519.59
747.91	1470.44
748.09	1427.43
748.27	1495.02
748.45	1535.98
748.63	1566.70
748.81	1439.72
748.99	1529.83
749.17	1497.07
749.35	1517.54
749.53	1404.91
749.72	1533.93
749.90	1447.91
750.08	1589.22
750.26	1597.42
750.44	1535.98
750.62	1615.85
750.80	1517.54
750.98	1488.87
751.16	1366.00
751.34	1466.35
751.52	1619.94
751.70	1542.12
751.88	1562.60
752.06	1642.47
752.24	1433.58
752.42	1658.85
752.60	1583.08
752.78	1460.20
752.96	1435.63
753.14	1546.22
753.32	1542.12
753.50	1642.47
753.68	1578.98
753.86	1538.02
754.04	1435.63
754.22	1495.02
754.40	1533.93
754.58	1390.57
754.76	1458.15
754.94	1460.20
755.12	1611.75
755.30	1544.17
755.48	1441.77
755.66	1581.03
755.84	1503.21
756.02	1603.56
756.20	1384.43
756.38	1681.38
756.56	1523.69
756.74	1503.21
756.92	1603.56
757.10	1587.18
757.28	1521.64
757.46	1513.45
757.64	1556.46
757.82	1470.44
758.00	1497.07
758.18	1646.57
758.36	1546.22
758.54	1605.61
758.72	1535.98
758.90	1525.74
759.08	1533.93
759.26	1654.76
759.44	1533.93
759.62	1593.32
759.80	1406.95
759.98	1519.59
760.16	1624.04
760.34	1554.41
760.52	1689.57
760.70	1603.56
760.88	1466.35
761.06	1392.62
761.24	1540.07
761.42	1597.42
761.60	1640.42
761.77	1521.64
761.95	1542.12
762.13	1667.05
762.31	1630.18
762.49	1554.41
762.67	1619.94
762.85	1488.87
763.03	1456.11
763.21	1480.68
763.39	1490.92
763.57	1589.22
763.75	1673.19
763.93	1636.33
764.11	1560.55
764.29	1595.37
764.46	1570.79
764.64	1548.26
764.82	1499.11
765.00	1560.55
765.18	1767.40
765.36	1554.41
765.54	1538.02
765.72	1611.75
765.90	1585.13
766.08	1601.51
766.26	1615.85
766.44	1595.37
766.61	1441.77
766.79	1591.27
766.97	1535.98
767.15	1538.02
767.33	1570.79
767.51	1619.94
767.69	1632.23
767.87	1675.24
768.05	1564.65
768.22	1675.24
768.40	1791.97
768.58	1669.09
768.76	1511.40
768.94	1593.32
769.12	1546.22
769.30	1513.45
769.48	1724.39
769.66	1603.56
769.83	1554.41
770.01	1574.89
770.19	1628.14
770.37	1648.61
770.55	1535.98
770.73	1570.79
770.91	1611.75
771.09	1501.16
771.26	1482.73
771.44	1783.78
771.62	1626.09
771.80	1646.57
771.98	1591.27
772.16	1601.51
772.34	1595.37
772.51	1554.41
772.69	1665.00
772.87	1736.68
773.05	1677.29
773.23	1593.32
773.41	1566.70
773.58	1648.61
773.76	1593.32
773.94	1652.71
774.12	1724.39
774.30	1716.20
774.48	1697.77
774.65	1515.50
774.83	1585.13
775.01	1677.29
775.19	1687.53
775.37	1656.81
775.55	1566.70
775.72	1679.33
775.90	1689.57
776.08	1550.31
776.26	1849.32
776.44	1720.29
776.61	1681.38
776.79	1671.14
776.97	1611.75
777.15	1699.81
777.33	1603.56
777.51	1601.51
777.68	1603.56
777.86	1552.36
778.04	1613.80
778.22	1607.66
778.40	1558.50
778.57	1556.46
778.75	1533.93
778.93	1589.22
779.11	1642.47
779.29	1708.01
779.46	1564.65
779.64	1646.57
779.82	1648.61
780.00	1470.44
780.17	1677.29
780.35	1605.61
780.53	1611.75
780.71	1695.72
780.89	1644.52
781.06	1585.13
781.24	1632.23
781.42	1589.22
781.60	1658.85
781.77	1603.56
781.95	1660.90
782.13	1574.89
782.31	1681.38
782.48	1732.58
782.66	1708.01
782.84	1767.40
783.02	1703.91
783.19	1744.87
783.37	1718.25
783.55	1628.14
783.73	1671.14
783.90	1695.72
784.08	1730.53
784.26	1632.23
784.44	1660.90
784.61	1691.62
784.79	1677.29
784.97	1662.95
785.15	1808.36
785.32	1642.47
785.50	1736.68
785.68	1755.11
785.86	1679.33
786.03	1689.57
786.21	1736.68
786.39	1660.90
786.57	1699.81
786.74	1566.70
786.92	1589.22
787.10	1777.64
787.27	1558.50
787.45	1662.95
787.63	1683.43
787.81	1769.44
787.98	1667.05
788.16	1742.82
788.34	1746.92
788.51	1644.52
788.69	1591.27
788.87	1660.90
789.04	1859.56
789.22	1843.17
789.40	1583.08
789.58	1611.75
789.75	1755.11
789.93	1724.39
790.11	1701.86
790.28	1617.90
790.46	1781.73
790.64	1740.77
790.81	1671.14
790.99	1767.40
791.17	1769.44
791.34	1673.19
791.52	1607.66
791.70	1705.96
791.87	1832.93
792.05	1763.30
792.23	1599.46
792.40	1656.81
792.58	1642.47
792.76	1685.48
792.93	1763.30
793.11	1751.01
793.29	1751.01
793.46	1765.35
793.64	1667.05
793.82	1708.01
793.99	1691.62
794.17	1570.79
794.35	1615.85
794.52	1789.92
794.70	1775.59
794.88	1818.60
795.05	1677.29
795.23	1613.80
795.41	1710.05
795.58	1589.22
795.76	1710.05
795.94	1673.19
796.11	1806.31
796.29	1658.85
796.46	1830.88
796.64	1660.90
796.82	1703.91
796.99	1775.59
797.17	1644.52
797.35	1736.68
797.52	1806.31
797.70	1855.46
797.87	1820.64
798.05	1875.94
798.23	1701.86
798.40	1804.26
798.58	1681.38
798.76	1716.20
798.93	1695.72
799.11	1695.72
799.28	1751.01
799.46	1726.44
799.64	1660.90
799.81	1763.30
799.99	1714.15
800.16	1734.63
800.34	1665.00
800.52	1730.53
800.69	1660.90
800.87	1787.88
801.04	1820.64
801.22	1705.96
801.39	1767.40
801.57	1630.18
801.75	1697.77
801.92	1769.44
802.10	1634.28
802.27	1746.92
802.45	1855.46
802.63	1765.35
802.80	1931.23
802.98	1683.43
803.15	1726.44
803.33	1630.18
803.50	1802.21
803.68	1748.97
803.86	1740.77
804.03	1730.53
804.21	1841.12
804.38	1857.51
804.56	1914.85
804.73	1890.28
804.91	1585.13
805.08	1734.63
805.26	1834.98
805.44	1767.40
805.61	1765.35
805.79	1726.44
805.96	1736.68
806.14	1734.63
806.31	1693.67
806.49	1814.50
806.66	1863.65
806.84	1896.42
807.01	1886.18
807.19	1724.39
807.36	1763.30
807.54	1789.92
807.71	1697.77
807.89	1773.54
808.07	1775.59
808.24	1736.68
808.42	1791.97
808.59	1796.07
808.77	1851.36
808.94	1873.89
809.12	1832.93
809.29	1771.49
809.47	1779.68
809.64	1781.73
809.82	1794.02
809.99	1794.02
810.17	1943.52
810.34	1798.12
810.52	1695.72
810.69	1775.59
810.87	1832.93
811.04	1812.45
811.22	1888.23
811.39	1755.11
811.57	1615.85
811.74	1767.40
811.92	1865.70
812.09	1839.08
812.27	1808.36
812.44	1775.59
812.62	1808.36
812.79	1857.51
812.97	1900.52
813.14	1794.02
813.31	1705.96
813.49	1871.84
813.66	1771.49
813.84	1796.07
814.01	1839.08
814.19	1791.97
814.36	1832.93
814.54	1621.99
814.71	1816.55
814.89	1769.44
815.06	1935.33
815.24	1800.16
815.41	1851.36
815.58	1751.01
815.76	1920.99
815.93	1927.14
816.11	1886.18
816.28	1785.83
816.46	1787.88
816.63	1812.45
816.81	1732.58
816.98	1814.50
817.15	1812.45
817.33	1894.37
817.50	1818.60
817.68	1710.05
817.85	1904.61
818.03	1722.34
818.20	1722.34
818.37	1757.16
818.55	1886.18
818.72	1732.58
818.90	1775.59
819.07	1773.54
819.25	2082.78
819.42	1902.56
819.59	1738.73
819.77	1718.25
819.94	1834.98
820.12	1986.53
820.29	1920.99
820.46	1777.64
820.64	1796.07
820.81	1791.97
820.99	1976.29
821.16	1849.32
821.33	1859.56
821.51	1908.71
821.68	1839.08
821.86	2066.40
822.03	1808.36
822.20	1935.33
822.38	1902.56
822.55	1751.01
822.73	1812.45
822.90	1937.38
823.07	1720.29
823.25	1863.65
823.42	1759.21
823.59	1918.95
823.77	1845.22
823.94	1941.47
824.12	1783.78
824.29	1890.28
824.46	1845.22
824.64	1798.12
824.81	1906.66
824.98	1734.63
825.16	1810.40
825.33	1726.44
825.50	1773.54
825.68	1914.85
825.85	1951.71
826.03	1906.66
826.20	1871.84
826.37	1935.33
826.55	1824.74
826.72	1800.16
826.89	1808.36
827.07	1832.93
827.24	1716.20
827.41	1855.46
827.59	1746.92
827.76	1841.12
827.93	1849.32
828.11	1859.56
828.28	1810.40
828.45	1927.14
828.63	1722.34
828.80	1951.71
828.97	1824.74
829.15	1890.28
829.32	1794.02
829.49	1892.32
829.67	1773.54
829.84	1832.93
830.01	1728.49
830.18	1814.50
830.36	1914.85
830.53	1775.59
830.70	1820.64
830.88	1757.16
831.05	1853.41
831.22	1966.05
831.40	1779.68
831.57	1732.58
831.74	1961.95
831.91	1931.23
832.09	1841.12
832.26	1753.06
832.43	1935.33
832.61	1908.71
832.78	1845.22
832.95	1681.38
833.13	1894.37
833.30	1857.51
833.47	1933.28
833.64	1853.41
833.82	1886.18
833.99	1742.82
834.16	1927.14
834.33	1826.79
834.51	1972.19
834.68	1925.09
834.85	1691.62
835.03	1767.40
835.20	1777.64
835.37	1759.21
835.54	1875.94
835.72	1937.38
835.89	1818.60
836.06	1904.61
836.23	1837.03
836.41	1693.67
836.58	1791.97
836.75	1861.60
836.92	1732.58
837.10	1644.52
837.27	1779.68
837.44	1857.51
837.61	1773.54
837.78	1908.71
837.96	1837.03
838.13	1822.69
838.30	1873.89
838.47	1871.84
838.65	1710.05
838.82	1826.79
838.99	1802.21
839.16	1730.53
839.34	1861.60
839.51	1884.13
839.68	1816.55
839.85	1873.89
840.02	1716.20
840.20	1687.53
840.37	1712.10
840.54	1765.35
840.71	1904.61
840.88	1820.64
841.06	1720.29
841.23	1867.75
841.40	1931.23
841.57	1802.21
841.74	1705.96
841.92	1804.26
842.09	1806.31
842.26	1820.64
842.43	1624.04
842.60	1783.78
842.78	1812.45
842.95	1679.33
843.12	1875.94
843.29	1816.55
843.46	1865.70
843.64	1861.60
843.81	1703.91
843.98	1890.28
844.15	1920.99
844.32	1777.64
844.49	1636.33
844.67	1810.40
844.84	1763.30
845.01	1773.54
845.18	1744.87
845.35	1671.14
845.52	1720.29
845.70	1888.23
845.87	1798.12
846.04	1843.17
846.21	1705.96
846.38	1902.56
846.55	1697.77
846.72	1691.62
846.90	1882.08
847.07	1789.92
847.24	1804.26
847.41	1779.68
847.58	1728.49
847.75	1689.57
847.92	1746.92
848.10	1759.21
848.27	1597.42
848.44	1767.40
848.61	1773.54
848.78	1669.09
848.95	1718.25
849.12	1638.38
849.29	1798.12
849.47	1830.88
849.64	1718.25
849.81	1771.49
849.98	1779.68
850.15	1759.21
850.32	1746.92
850.49	1693.67
850.66	1558.50
850.84	1660.90
851.01	1591.27
851.18	1667.05
851.35	1662.95
851.52	1671.14
851.69	1775.59
851.86	1769.44
852.03	1667.05
852.20	1693.67
852.37	1703.91
852.54	1857.51
852.72	1816.55
852.89	1841.12
853.06	1785.83
853.23	1650.66
853.40	1730.53
853.57	1566.70
853.74	1757.16
853.91	1705.96
854.08	1652.71
854.25	1531.88
854.42	1687.53
854.59	1736.68
854.76	1648.61
854.94	1595.37
855.11	1710.05
855.28	1648.61
855.45	1712.10
855.62	1755.11
855.79	1759.21
855.96	1667.05
856.13	1656.81
856.30	1703.91
856.47	1708.01
856.64	1728.49
856.81	1626.09
856.98	1720.29
857.15	1720.29
857.32	1486.83
857.49	1728.49
857.66	1540.07
857.83	1601.51
858.00	1662.95
858.17	1720.29
858.35	1638.38
858.52	1761.25
858.69	1687.53
858.86	1554.41
859.03	1617.90
859.20	1693.67
859.37	1652.71
859.54	1652.71
859.71	1701.86
859.88	1548.26
860.05	1587.18
860.22	1597.42
860.39	1677.29
860.56	1611.75
860.73	1636.33
860.90	1652.71
861.07	1673.19
861.24	1638.38
861.41	1685.48
861.58	1603.56
861.75	1529.83
861.92	1726.44
862.09	1619.94
862.26	1718.25
862.43	1550.31
862.60	1648.61
862.77	1685.48
862.94	1599.46
863.11	1667.05
863.28	1689.57
863.45	1605.61
863.62	1587.18
863.79	1521.64
863.96	1714.15
864.13	1742.82
864.30	1540.07
864.46	1628.14
864.63	1740.77
864.80	1615.85
864.97	1820.64
865.14	1497.07
865.31	1521.64
865.48	1611.75
865.65	1564.65
865.82	1650.66
865.99	1718.25
866.16	1605.61
866.33	1628.14
866.50	1568.74
866.67	1689.57
866.84	1503.21
867.01	1730.53
867.18	1632.23
867.35	1720.29
867.52	1775.59
867.69	1650.66
867.85	1515.50
868.02	1673.19
868.19	1642.47
868.36	1607.66
868.53	1624.04
868.70	1626.09
868.87	1589.22
869.04	1538.02
869.21	1617.90
869.38	1636.33
869.55	1718.25
869.72	1607.66
869.89	1572.84
870.05	1507.30
870.22	1601.51
870.39	1478.63
870.56	1708.01
870.73	1544.17
870.90	1736.68
871.07	1591.27
871.24	1581.03
871.41	1669.09
871.58	1624.04
871.74	1525.74
871.91	1509.35
872.08	1662.95
872.25	1476.59
872.42	1484.78
872.59	1587.18
872.76	1578.98
872.93	1648.61
873.10	1597.42
873.26	1626.09
873.43	1562.60
873.60	1550.31
873.77	1452.01
873.94	1482.73
874.11	1603.56
874.28	1619.94
874.45	1626.09
874.61	1519.59
874.78	1515.50
874.95	1615.85
875.12	1486.83
875.29	1609.70
875.46	1544.17
875.63	1671.14
875.79	1521.64
875.96	1492.97
876.13	1503.21
876.30	1488.87
876.47	1527.78
876.64	1603.56
876.80	1527.78
876.97	1538.02
877.14	1523.69
877.31	1533.93
877.48	1552.36
877.65	1521.64
877.81	1486.83
877.98	1492.97
878.15	1628.14
878.32	1488.87
878.49	1566.70
878.66	1566.70
878.82	1550.31
878.99	1640.42
879.16	1474.54
879.33	1538.02
879.50	1605.61
879.67	1603.56
879.83	1517.54
880.00	1423.34
880.17	1583.08
880.34	1513.45
880.51	1429.48
880.67	1587.18
880.84	1603.56
881.01	1624.04
881.18	1578.98
881.35	1447.91
881.51	1484.78
881.68	1599.46
881.85	1656.81
882.02	1470.44
882.18	1570.79
882.35	1425.39
882.52	1507.30
882.69	1462.25
882.86	1499.11
883.02	1456.11
883.19	1492.97
883.36	1576.94
883.53	1515.50
883.69	1476.59
883.86	1429.48
884.03	1570.79
884.20	1546.22
884.36	1566.70
884.53	1538.02
884.70	1378.28
884.87	1437.67
885.04	1560.55
885.20	1665.00
885.37	1527.78
885.54	1546.22
885.71	1552.36
885.87	1513.45
886.04	1460.20
886.21	1495.02
886.38	1519.59
886.54	1533.93
886.71	1529.83
886.88	1699.81
>>>>>End Processed Spectral Data<<<<<
