SpectraSuite Data File
++++++++++++++++++++++++++++++++++++
Date: Fri May 01 10:36:46 EST 2015
User: ocean
Dark Spectrum Present: No
Reference Spectrum Present: No
Number of Sampled Component Spectra: 1
Spectrometers: USB4E02642
Integration Time (usec): 150000 (USB4E02642)
Spectra Averaged: 1 (USB4E02642)
Boxcar Smoothing: 0 (USB4E02642)
Correct for Electrical Dark: No (USB4E02642)
Strobe/Lamp Enabled: No (USB4E02642)
Correct for Detector Non-linearity: No (USB4E02642)
Correct for Stray Light: No (USB4E02642)
Number of Pixels in Processed Spectrum: 3648
>>>>>Begin Processed Spectral Data<<<<<
179.22	1021.94
179.43	1021.94
179.65	1021.94
179.86	1019.89
180.08	1062.90
180.29	1419.24
180.51	1251.31
180.72	1267.69
180.94	1292.27
181.15	1185.77
181.37	1370.09
181.58	1165.29
181.80	1390.57
182.01	1282.03
182.23	1423.34
182.44	1363.95
182.66	1267.69
182.87	1345.52
183.09	1322.99
183.30	1224.69
183.52	1454.06
183.73	1343.47
183.95	1331.18
184.16	1337.32
184.38	1304.56
184.59	1218.54
184.81	1304.56
185.02	1316.84
185.24	1275.88
185.45	1361.90
185.67	1288.17
185.88	1382.38
186.10	1267.69
186.31	1261.55
186.53	1312.75
186.74	1249.26
186.96	1355.76
187.17	1247.21
187.39	1255.40
187.60	1267.69
187.81	1460.20
188.03	1345.52
188.24	1357.80
188.46	1232.88
188.67	1452.01
188.89	1353.71
189.10	1400.81
189.32	1335.28
189.53	1366.00
189.75	1421.29
189.96	1386.47
190.18	1292.27
190.39	1316.84
190.61	1335.28
190.82	1265.64
191.04	1419.24
191.25	1470.44
191.46	1316.84
191.68	1349.61
191.89	1425.39
192.11	1353.71
192.32	1357.80
192.54	1290.22
192.75	1214.45
192.97	1359.85
193.18	1359.85
193.40	1384.43
193.61	1302.51
193.83	1441.77
194.04	1370.09
194.25	1372.14
194.47	1425.39
194.68	1275.88
194.90	1339.37
195.11	1390.57
195.33	1374.19
195.54	1355.76
195.76	1400.81
195.97	1294.32
196.18	1394.67
196.40	1384.43
196.61	1312.75
196.83	1411.05
197.04	1312.75
197.26	1456.11
197.47	1433.58
197.69	1300.46
197.90	1349.61
198.11	1308.65
198.33	1304.56
198.54	1331.18
198.76	1454.06
198.97	1335.28
199.19	1304.56
199.40	1357.80
199.61	1263.60
199.83	1232.88
200.04	1325.04
200.26	1236.97
200.47	1314.80
200.69	1390.57
200.90	1353.71
201.11	1249.26
201.33	1325.04
201.54	1421.29
201.76	1349.61
201.97	1351.66
202.19	1378.28
202.40	1419.24
202.61	1341.42
202.83	1312.75
203.04	1345.52
203.26	1386.47
203.47	1370.09
203.68	1413.10
203.90	1343.47
204.11	1318.89
204.33	1316.84
204.54	1400.81
204.75	1353.71
204.97	1249.26
205.18	1191.92
205.40	1239.02
205.61	1413.10
205.83	1531.88
206.04	1329.13
206.25	1333.23
206.47	1425.39
206.68	1388.52
206.90	1292.27
207.11	1273.84
207.32	1253.36
207.54	1357.80
207.75	1380.33
207.97	1179.63
208.18	1417.19
208.39	1343.47
208.61	1290.22
208.82	1445.87
209.03	1347.56
209.25	1341.42
209.46	1376.24
209.68	1216.49
209.89	1325.04
210.10	1306.60
210.32	1366.00
210.53	1325.04
210.75	1417.19
210.96	1239.02
211.17	1353.71
211.39	1310.70
211.60	1294.32
211.82	1193.97
212.03	1257.45
212.24	1304.56
212.46	1415.15
212.67	1441.77
212.88	1216.49
213.10	1325.04
213.31	1398.76
213.53	1454.06
213.74	1392.62
213.95	1400.81
214.17	1425.39
214.38	1406.95
214.59	1370.09
214.81	1433.58
215.02	1363.95
215.23	1286.12
215.45	1269.74
215.66	1279.98
215.88	1327.08
216.09	1249.26
216.30	1273.84
216.52	1325.04
216.73	1214.45
216.94	1370.09
217.16	1357.80
217.37	1404.91
217.58	1363.95
217.80	1550.31
218.01	1341.42
218.22	1314.80
218.44	1269.74
218.65	1372.14
218.87	1230.83
219.08	1372.14
219.29	1478.63
219.51	1390.57
219.72	1267.69
219.93	1357.80
220.15	1427.43
220.36	1234.93
220.57	1398.76
220.79	1232.88
221.00	1273.84
221.21	1398.76
221.43	1445.87
221.64	1302.51
221.85	1316.84
222.07	1378.28
222.28	1372.14
222.49	1243.12
222.71	1269.74
222.92	1302.51
223.13	1331.18
223.35	1220.59
223.56	1325.04
223.77	1245.16
223.99	1292.27
224.20	1443.82
224.41	1232.88
224.63	1396.71
224.84	1261.55
225.05	1419.24
225.27	1490.92
225.48	1521.64
225.69	1261.55
225.91	1265.64
226.12	1292.27
226.33	1486.83
226.55	1288.17
226.76	1312.75
226.97	1327.08
227.19	1366.00
227.40	1322.99
227.61	1339.37
227.82	1333.23
228.04	1234.93
228.25	1267.69
228.46	1322.99
228.68	1482.73
228.89	1337.32
229.10	1347.56
229.32	1341.42
229.53	1286.12
229.74	1314.80
229.96	1343.47
230.17	1359.85
230.38	1460.20
230.59	1304.56
230.81	1282.03
231.02	1279.98
231.23	1259.50
231.45	1421.29
231.66	1327.08
231.87	1331.18
232.09	1366.00
232.30	1208.30
232.51	1318.89
232.72	1378.28
232.94	1177.58
233.15	1497.07
233.36	1204.21
233.58	1290.22
233.79	1329.13
234.00	1351.66
234.21	1372.14
234.43	1314.80
234.64	1347.56
234.85	1402.86
235.07	1308.65
235.28	1322.99
235.49	1327.08
235.70	1503.21
235.92	1366.00
236.13	1308.65
236.34	1413.10
236.56	1288.17
236.77	1275.88
236.98	1325.04
237.19	1384.43
237.41	1380.33
237.62	1368.04
237.83	1390.57
238.04	1433.58
238.26	1409.00
238.47	1441.77
238.68	1380.33
238.89	1325.04
239.11	1398.76
239.32	1374.19
239.53	1357.80
239.75	1247.21
239.96	1310.70
240.17	1290.22
240.38	1318.89
240.60	1316.84
240.81	1343.47
241.02	1415.15
241.23	1361.90
241.45	1456.11
241.66	1249.26
241.87	1413.10
242.08	1316.84
242.30	1257.45
242.51	1341.42
242.72	1243.12
242.93	1241.07
243.15	1368.04
243.36	1417.19
243.57	1392.62
243.78	1406.95
244.00	1363.95
244.21	1216.49
244.42	1339.37
244.63	1447.91
244.85	1220.59
245.06	1288.17
245.27	1480.68
245.48	1210.35
245.70	1372.14
245.91	1423.34
246.12	1292.27
246.33	1327.08
246.54	1427.43
246.76	1331.18
246.97	1353.71
247.18	1349.61
247.39	1257.45
247.61	1478.63
247.82	1331.18
248.03	1282.03
248.24	1337.32
248.45	1265.64
248.67	1363.95
248.88	1314.80
249.09	1306.60
249.30	1388.52
249.52	1353.71
249.73	1390.57
249.94	1271.79
250.15	1357.80
250.36	1370.09
250.58	1447.91
250.79	1445.87
251.00	1355.76
251.21	1429.48
251.43	1296.36
251.64	1517.54
251.85	1318.89
252.06	1243.12
252.27	1312.75
252.49	1349.61
252.70	1331.18
252.91	1269.74
253.12	1325.04
253.33	1337.32
253.55	1339.37
253.76	1300.46
253.97	1308.65
254.18	1337.32
254.39	1230.83
254.61	1322.99
254.82	1449.96
255.03	1437.67
255.24	1214.45
255.45	1304.56
255.67	1386.47
255.88	1359.85
256.09	1349.61
256.30	1296.36
256.51	1402.86
256.73	1411.05
256.94	1353.71
257.15	1462.25
257.36	1282.03
257.57	1472.49
257.78	1318.89
258.00	1275.88
258.21	1415.15
258.42	1247.21
258.63	1249.26
258.84	1320.94
259.06	1288.17
259.27	1411.05
259.48	1312.75
259.69	1337.32
259.90	1224.69
260.11	1423.34
260.33	1292.27
260.54	1306.60
260.75	1386.47
260.96	1316.84
261.17	1388.52
261.38	1357.80
261.60	1355.76
261.81	1325.04
262.02	1333.23
262.23	1294.32
262.44	1355.76
262.65	1351.66
262.87	1275.88
263.08	1366.00
263.29	1353.71
263.50	1320.94
263.71	1282.03
263.92	1259.50
264.13	1382.38
264.35	1411.05
264.56	1325.04
264.77	1409.00
264.98	1353.71
265.19	1206.25
265.40	1349.61
265.62	1329.13
265.83	1368.04
266.04	1441.77
266.25	1363.95
266.46	1329.13
266.67	1466.35
266.88	1343.47
267.10	1255.40
267.31	1370.09
267.52	1275.88
267.73	1294.32
267.94	1355.76
268.15	1259.50
268.36	1306.60
268.57	1419.24
268.79	1357.80
269.00	1318.89
269.21	1282.03
269.42	1318.89
269.63	1308.65
269.84	1302.51
270.05	1294.32
270.27	1329.13
270.48	1302.51
270.69	1318.89
270.90	1292.27
271.11	1347.56
271.32	1406.95
271.53	1333.23
271.74	1312.75
271.96	1288.17
272.17	1251.31
272.38	1370.09
272.59	1202.16
272.80	1310.70
273.01	1384.43
273.22	1226.73
273.43	1366.00
273.64	1290.22
273.86	1452.01
274.07	1335.28
274.28	1370.09
274.49	1312.75
274.70	1294.32
274.91	1382.38
275.12	1427.43
275.33	1292.27
275.54	1370.09
275.76	1290.22
275.97	1273.84
276.18	1368.04
276.39	1341.42
276.60	1243.12
276.81	1421.29
277.02	1325.04
277.23	1322.99
277.44	1243.12
277.65	1325.04
277.86	1345.52
278.08	1296.36
278.29	1421.29
278.50	1425.39
278.71	1212.40
278.92	1275.88
279.13	1269.74
279.34	1298.41
279.55	1284.08
279.76	1402.86
279.97	1314.80
280.18	1488.87
280.40	1349.61
280.61	1296.36
280.82	1320.94
281.03	1224.69
281.24	1415.15
281.45	1363.95
281.66	1247.21
281.87	1355.76
282.08	1320.94
282.29	1462.25
282.50	1200.11
282.71	1189.87
282.92	1570.79
283.13	1437.67
283.35	1284.08
283.56	1343.47
283.77	1288.17
283.98	1353.71
284.19	1372.14
284.40	1202.16
284.61	1279.98
284.82	1464.30
285.03	1406.95
285.24	1226.73
285.45	1298.41
285.66	1351.66
285.87	1370.09
286.08	1366.00
286.29	1413.10
286.50	1269.74
286.71	1327.08
286.93	1234.93
287.14	1394.67
287.35	1439.72
287.56	1437.67
287.77	1363.95
287.98	1351.66
288.19	1312.75
288.40	1363.95
288.61	1288.17
288.82	1374.19
289.03	1460.20
289.24	1392.62
289.45	1417.19
289.66	1333.23
289.87	1503.21
290.08	1261.55
290.29	1226.73
290.50	1419.24
290.71	1273.84
290.92	1443.82
291.13	1370.09
291.34	1329.13
291.55	1243.12
291.76	1294.32
291.97	1304.56
292.18	1284.08
292.39	1292.27
292.61	1322.99
292.82	1146.86
293.03	1486.83
293.24	1288.17
293.45	1290.22
293.66	1333.23
293.87	1333.23
294.08	1353.71
294.29	1251.31
294.50	1372.14
294.71	1404.91
294.92	1331.18
295.13	1353.71
295.34	1325.04
295.55	1216.49
295.76	1308.65
295.97	1415.15
296.18	1417.19
296.39	1271.79
296.60	1429.48
296.81	1345.52
297.02	1322.99
297.23	1456.11
297.44	1322.99
297.65	1415.15
297.86	1277.93
298.07	1243.12
298.28	1333.23
298.49	1284.08
298.70	1294.32
298.91	1353.71
299.12	1247.21
299.33	1222.64
299.54	1390.57
299.75	1288.17
299.96	1390.57
300.17	1466.35
300.38	1349.61
300.59	1249.26
300.80	1341.42
301.01	1390.57
301.22	1259.50
301.43	1368.04
301.64	1224.69
301.85	1284.08
302.06	1429.48
302.27	1316.84
302.48	1544.17
302.69	1191.92
302.89	1363.95
303.10	1347.56
303.31	1243.12
303.52	1243.12
303.73	1335.28
303.94	1292.27
304.15	1312.75
304.36	1259.50
304.57	1273.84
304.78	1341.42
304.99	1273.84
305.20	1286.12
305.41	1402.86
305.62	1331.18
305.83	1318.89
306.04	1206.25
306.25	1404.91
306.46	1325.04
306.67	1345.52
306.88	1351.66
307.09	1300.46
307.30	1302.51
307.51	1314.80
307.72	1320.94
307.93	1290.22
308.14	1275.88
308.35	1380.33
308.55	1394.67
308.76	1218.54
308.97	1308.65
309.18	1398.76
309.39	1421.29
309.60	1208.30
309.81	1349.61
310.02	1228.78
310.23	1226.73
310.44	1300.46
310.65	1306.60
310.86	1318.89
311.07	1400.81
311.28	1306.60
311.49	1271.79
311.70	1372.14
311.91	1294.32
312.11	1273.84
312.32	1251.31
312.53	1267.69
312.74	1439.72
312.95	1310.70
313.16	1476.59
313.37	1300.46
313.58	1214.45
313.79	1232.88
314.00	1347.56
314.21	1298.41
314.42	1232.88
314.63	1357.80
314.83	1284.08
315.04	1409.00
315.25	1335.28
315.46	1458.15
315.67	1349.61
315.88	1290.22
316.09	1427.43
316.30	1341.42
316.51	1357.80
316.72	1349.61
316.93	1259.50
317.13	1314.80
317.34	1230.83
317.55	1423.34
317.76	1228.78
317.97	1339.37
318.18	1357.80
318.39	1392.62
318.60	1368.04
318.81	1239.02
319.02	1390.57
319.23	1447.91
319.43	1441.77
319.64	1345.52
319.85	1304.56
320.06	1357.80
320.27	1363.95
320.48	1374.19
320.69	1357.80
320.90	1241.07
321.11	1361.90
321.31	1320.94
321.52	1253.36
321.73	1398.76
321.94	1339.37
322.15	1257.45
322.36	1472.49
322.57	1460.20
322.78	1251.31
322.98	1347.56
323.19	1370.09
323.40	1290.22
323.61	1329.13
323.82	1263.60
324.03	1161.20
324.24	1443.82
324.45	1386.47
324.65	1193.97
324.86	1296.36
325.07	1452.01
325.28	1382.38
325.49	1402.86
325.70	1302.51
325.91	1419.24
326.12	1292.27
326.32	1294.32
326.53	1265.64
326.74	1318.89
326.95	1380.33
327.16	1327.08
327.37	1380.33
327.58	1261.55
327.78	1271.79
327.99	1183.73
328.20	1320.94
328.41	1247.21
328.62	1243.12
328.83	1384.43
329.04	1322.99
329.24	1288.17
329.45	1224.69
329.66	1341.42
329.87	1275.88
330.08	1384.43
330.29	1318.89
330.49	1431.53
330.70	1275.88
330.91	1357.80
331.12	1370.09
331.33	1400.81
331.54	1376.24
331.74	1349.61
331.95	1292.27
332.16	1288.17
332.37	1241.07
332.58	1325.04
332.79	1247.21
332.99	1376.24
333.20	1349.61
333.41	1322.99
333.62	1384.43
333.83	1275.88
334.04	1284.08
334.24	1392.62
334.45	1167.34
334.66	1279.98
334.87	1267.69
335.08	1406.95
335.29	1224.69
335.49	1390.57
335.70	1368.04
335.91	1333.23
336.12	1427.43
336.33	1284.08
336.53	1322.99
336.74	1318.89
336.95	1310.70
337.16	1370.09
337.37	1339.37
337.57	1271.79
337.78	1341.42
337.99	1306.60
338.20	1345.52
338.41	1345.52
338.62	1282.03
338.82	1349.61
339.03	1275.88
339.24	1325.04
339.45	1409.00
339.65	1200.11
339.86	1304.56
340.07	1415.15
340.28	1255.40
340.49	1366.00
340.69	1345.52
340.90	1312.75
341.11	1378.28
341.32	1376.24
341.53	1261.55
341.73	1351.66
341.94	1275.88
342.15	1417.19
342.36	1429.48
342.57	1513.45
342.77	1337.32
342.98	1308.65
343.19	1306.60
343.40	1341.42
343.60	1316.84
343.81	1333.23
344.02	1271.79
344.23	1376.24
344.44	1239.02
344.64	1296.36
344.85	1361.90
345.06	1269.74
345.27	1267.69
345.47	1271.79
345.68	1341.42
345.89	1349.61
346.10	1476.59
346.30	1304.56
346.51	1249.26
346.72	1415.15
346.93	1353.71
347.13	1275.88
347.34	1316.84
347.55	1363.95
347.76	1306.60
347.97	1427.43
348.17	1284.08
348.38	1286.12
348.59	1282.03
348.80	1316.84
349.00	1339.37
349.21	1337.32
349.42	1439.72
349.63	1456.11
349.83	1298.41
350.04	1304.56
350.25	1306.60
350.45	1218.54
350.66	1316.84
350.87	1273.84
351.08	1275.88
351.28	1355.76
351.49	1267.69
351.70	1351.66
351.91	1363.95
352.11	1292.27
352.32	1363.95
352.53	1320.94
352.74	1298.41
352.94	1357.80
353.15	1337.32
353.36	1359.85
353.56	1322.99
353.77	1312.75
353.98	1368.04
354.19	1353.71
354.39	1286.12
354.60	1226.73
354.81	1454.06
355.02	1230.83
355.22	1359.85
355.43	1376.24
355.64	1241.07
355.84	1308.65
356.05	1284.08
356.26	1484.78
356.47	1361.90
356.67	1380.33
356.88	1353.71
357.09	1366.00
357.29	1325.04
357.50	1423.34
357.71	1325.04
357.92	1304.56
358.12	1275.88
358.33	1314.80
358.54	1357.80
358.74	1427.43
358.95	1429.48
359.16	1341.42
359.36	1245.16
359.57	1378.28
359.78	1400.81
359.98	1361.90
360.19	1329.13
360.40	1458.15
360.61	1363.95
360.81	1349.61
361.02	1259.50
361.23	1220.59
361.43	1312.75
361.64	1366.00
361.85	1419.24
362.05	1355.76
362.26	1263.60
362.47	1296.36
362.67	1361.90
362.88	1351.66
363.09	1277.93
363.29	1314.80
363.50	1292.27
363.71	1232.88
363.91	1247.21
364.12	1490.92
364.33	1271.79
364.53	1439.72
364.74	1296.36
364.95	1357.80
365.15	1353.71
365.36	1288.17
365.57	1357.80
365.77	1349.61
365.98	1374.19
366.19	1482.73
366.39	1177.58
366.60	1322.99
366.81	1234.93
367.01	1396.71
367.22	1345.52
367.43	1349.61
367.63	1329.13
367.84	1406.95
368.05	1363.95
368.25	1388.52
368.46	1333.23
368.67	1247.21
368.87	1396.71
369.08	1304.56
369.29	1218.54
369.49	1292.27
369.70	1329.13
369.91	1341.42
370.11	1259.50
370.32	1339.37
370.52	1394.67
370.73	1437.67
370.94	1169.39
371.14	1370.09
371.35	1312.75
371.56	1380.33
371.76	1415.15
371.97	1513.45
372.18	1206.25
372.38	1327.08
372.59	1308.65
372.79	1337.32
373.00	1290.22
373.21	1339.37
373.41	1335.28
373.62	1316.84
373.83	1372.14
374.03	1300.46
374.24	1329.13
374.44	1400.81
374.65	1388.52
374.86	1284.08
375.06	1392.62
375.27	1255.40
375.47	1361.90
375.68	1374.19
375.89	1282.03
376.09	1452.01
376.30	1232.88
376.50	1372.14
376.71	1380.33
376.92	1255.40
377.12	1329.13
377.33	1349.61
377.54	1239.02
377.74	1284.08
377.95	1476.59
378.15	1351.66
378.36	1302.51
378.57	1370.09
378.77	1372.14
378.98	1247.21
379.18	1263.60
379.39	1366.00
379.59	1245.16
379.80	1253.36
380.01	1308.65
380.21	1302.51
380.42	1331.18
380.62	1333.23
380.83	1284.08
381.04	1263.60
381.24	1296.36
381.45	1357.80
381.65	1292.27
381.86	1255.40
382.06	1370.09
382.27	1370.09
382.48	1322.99
382.68	1431.53
382.89	1378.28
383.09	1398.76
383.30	1333.23
383.51	1331.18
383.71	1396.71
383.92	1251.31
384.12	1296.36
384.33	1339.37
384.53	1331.18
384.74	1353.71
384.94	1409.00
385.15	1325.04
385.36	1331.18
385.56	1337.32
385.77	1337.32
385.97	1251.31
386.18	1228.78
386.38	1259.50
386.59	1273.84
386.79	1245.16
387.00	1314.80
387.21	1361.90
387.41	1435.63
387.62	1425.39
387.82	1255.40
388.03	1325.04
388.23	1288.17
388.44	1316.84
388.64	1318.89
388.85	1374.19
389.06	1247.21
389.26	1316.84
389.47	1284.08
389.67	1171.44
389.88	1511.40
390.08	1282.03
390.29	1415.15
390.49	1402.86
390.70	1419.24
390.90	1366.00
391.11	1292.27
391.31	1279.98
391.52	1261.55
391.72	1314.80
391.93	1243.12
392.13	1384.43
392.34	1290.22
392.55	1339.37
392.75	1304.56
392.96	1249.26
393.16	1314.80
393.37	1267.69
393.57	1245.16
393.78	1349.61
393.98	1304.56
394.19	1357.80
394.39	1243.12
394.60	1392.62
394.80	1318.89
395.01	1331.18
395.21	1454.06
395.42	1347.56
395.62	1222.64
395.83	1286.12
396.03	1415.15
396.24	1492.97
396.44	1363.95
396.65	1345.52
396.85	1257.45
397.06	1419.24
397.26	1327.08
397.47	1290.22
397.67	1423.34
397.88	1263.60
398.08	1249.26
398.29	1378.28
398.49	1388.52
398.70	1294.32
398.90	1284.08
399.11	1261.55
399.31	1458.15
399.52	1273.84
399.72	1345.52
399.93	1392.62
400.13	1331.18
400.34	1327.08
400.54	1472.49
400.75	1279.98
400.95	1421.29
401.15	1490.92
401.36	1294.32
401.56	1318.89
401.77	1378.28
401.97	1245.16
402.18	1359.85
402.38	1325.04
402.59	1398.76
402.79	1331.18
403.00	1288.17
403.20	1329.13
403.41	1351.66
403.61	1316.84
403.82	1320.94
404.02	1275.88
404.22	1314.80
404.43	1372.14
404.63	1394.67
404.84	1382.38
405.04	1316.84
405.25	1386.47
405.45	1343.47
405.66	1341.42
405.86	1355.76
406.07	1425.39
406.27	1263.60
406.47	1466.35
406.68	1359.85
406.88	1439.72
407.09	1400.81
407.29	1447.91
407.50	1363.95
407.70	1370.09
407.91	1343.47
408.11	1462.25
408.31	1452.01
408.52	1382.38
408.72	1343.47
408.93	1372.14
409.13	1464.30
409.34	1540.07
409.54	1378.28
409.74	1394.67
409.95	1267.69
410.15	1314.80
410.36	1372.14
410.56	1345.52
410.77	1562.60
410.97	1384.43
411.17	1464.30
411.38	1380.33
411.58	1466.35
411.79	1441.77
411.99	1464.30
412.19	1464.30
412.40	1411.05
412.60	1458.15
412.81	1394.67
413.01	1515.50
413.22	1486.83
413.42	1386.47
413.62	1435.63
413.83	1441.77
414.03	1419.24
414.24	1472.49
414.44	1458.15
414.64	1411.05
414.85	1388.52
415.05	1474.54
415.26	1476.59
415.46	1458.15
415.66	1478.63
415.87	1425.39
416.07	1456.11
416.28	1427.43
416.48	1574.89
416.68	1581.03
416.89	1447.91
417.09	1521.64
417.29	1415.15
417.50	1429.48
417.70	1337.32
417.91	1441.77
418.11	1431.53
418.31	1392.62
418.52	1488.87
418.72	1421.29
418.93	1476.59
419.13	1351.66
419.33	1460.20
419.54	1486.83
419.74	1454.06
419.94	1521.64
420.15	1411.05
420.35	1456.11
420.56	1497.07
420.76	1449.96
420.96	1460.20
421.17	1480.68
421.37	1411.05
421.57	1427.43
421.78	1576.94
421.98	1517.54
422.18	1583.08
422.39	1505.26
422.59	1452.01
422.80	1495.02
423.00	1443.82
423.20	1505.26
423.41	1425.39
423.61	1533.93
423.81	1443.82
424.02	1535.98
424.22	1535.98
424.42	1443.82
424.63	1533.93
424.83	1454.06
425.03	1568.74
425.24	1566.70
425.44	1621.99
425.64	1462.25
425.85	1523.69
426.05	1431.53
426.25	1535.98
426.46	1470.44
426.66	1470.44
426.86	1646.57
427.07	1570.79
427.27	1617.90
427.47	1736.68
427.68	1521.64
427.88	1601.51
428.08	1671.14
428.29	1482.73
428.49	1431.53
428.69	1742.82
428.90	1445.87
429.10	1480.68
429.30	1589.22
429.51	1513.45
429.71	1667.05
429.91	1515.50
430.12	1626.09
430.32	1759.21
430.52	1492.97
430.72	1564.65
430.93	1636.33
431.13	1636.33
431.33	1597.42
431.54	1640.42
431.74	1574.89
431.94	1488.87
432.15	1619.94
432.35	1624.04
432.55	1482.73
432.76	1462.25
432.96	1599.46
433.16	1566.70
433.36	1724.39
433.57	1597.42
433.77	1763.30
433.97	1558.50
434.18	1652.71
434.38	1542.12
434.58	1667.05
434.78	1615.85
434.99	1712.10
435.19	1734.63
435.39	1523.69
435.60	1626.09
435.80	1855.46
436.00	1644.52
436.20	1640.42
436.41	1628.14
436.61	1617.90
436.81	1562.60
437.02	1685.48
437.22	1630.18
437.42	1619.94
437.62	1587.18
437.83	1728.49
438.03	1640.42
438.23	1652.71
438.43	1751.01
438.64	1689.57
438.84	1638.38
439.04	1609.70
439.25	1689.57
439.45	1771.49
439.65	1560.55
439.85	1681.38
440.06	1634.28
440.26	1708.01
440.46	1773.54
440.66	1755.11
440.87	1785.83
441.07	1816.55
441.27	1775.59
441.47	1716.20
441.68	1697.77
441.88	1732.58
442.08	1697.77
442.28	1744.87
442.49	1716.20
442.69	1732.58
442.89	1656.81
443.09	1650.66
443.30	1605.61
443.50	1759.21
443.70	1638.38
443.90	1701.86
444.10	1746.92
444.31	1779.68
444.51	1605.61
444.71	1773.54
444.91	1722.34
445.12	1677.29
445.32	1910.75
445.52	1671.14
445.72	1671.14
445.93	1572.84
446.13	1681.38
446.33	1699.81
446.53	1767.40
446.73	1720.29
446.94	1677.29
447.14	1685.48
447.34	1566.70
447.54	1851.36
447.74	1679.33
447.95	1761.25
448.15	1796.07
448.35	1816.55
448.55	1689.57
448.76	1642.47
448.96	1724.39
449.16	1753.06
449.36	1796.07
449.56	1667.05
449.77	1777.64
449.97	1843.17
450.17	1611.75
450.37	1775.59
450.57	1875.94
450.78	1832.93
450.98	1740.77
451.18	1812.45
451.38	1751.01
451.58	1908.71
451.79	1677.29
451.99	1683.43
452.19	1665.00
452.39	1832.93
452.59	1814.50
452.79	1746.92
453.00	1847.27
453.20	1869.80
453.40	1734.63
453.60	1857.51
453.80	1845.22
454.01	1787.88
454.21	1800.16
454.41	1779.68
454.61	1855.46
454.81	1839.08
455.01	1822.69
455.22	1751.01
455.42	1916.90
455.62	1888.23
455.82	1808.36
456.02	1761.25
456.22	1925.09
456.43	1828.84
456.63	1777.64
456.83	1732.58
457.03	1812.45
457.23	1927.14
457.43	1851.36
457.64	1937.38
457.84	1853.41
458.04	1914.85
458.24	1849.32
458.44	1841.12
458.64	1841.12
458.84	1988.58
459.05	1865.70
459.25	1867.75
459.45	1957.86
459.65	2004.96
459.85	1824.74
460.05	1847.27
460.25	1935.33
460.46	1994.72
460.66	1939.43
460.86	1847.27
461.06	1949.67
461.26	1822.69
461.46	1906.66
461.66	1994.72
461.87	2041.82
462.07	1970.15
462.27	2080.74
462.47	1976.29
462.67	2068.45
462.87	2045.92
463.07	1939.43
463.27	1972.19
463.48	1906.66
463.68	1972.19
463.88	1869.80
464.08	2119.65
464.28	2035.68
464.48	1929.19
464.68	1920.99
464.88	1931.23
465.08	2056.16
465.29	2138.08
465.49	2013.15
465.69	1984.48
465.89	2205.66
466.09	2070.50
466.29	2103.26
466.49	2109.41
466.69	2039.78
466.89	2129.89
467.10	2109.41
467.30	2144.22
467.50	2332.64
467.70	2093.02
467.90	2099.17
468.10	2156.51
468.30	2090.98
468.50	2164.70
468.70	2093.02
468.90	2138.08
469.10	2150.37
469.31	2166.75
469.51	2271.20
469.71	2090.98
469.91	2240.48
470.11	2226.14
470.31	2222.05
470.51	2338.78
470.71	2232.29
470.91	2220.00
471.11	2269.15
471.31	2230.24
471.51	2392.03
471.71	2289.63
471.92	2379.74
472.12	2312.16
472.32	2234.33
472.52	2316.25
472.72	2326.49
472.92	2316.25
473.12	2349.02
473.32	2424.80
473.52	2412.51
473.72	2494.43
473.92	2516.95
474.12	2541.53
474.32	2539.48
474.52	2635.74
474.72	2498.52
474.92	2598.87
475.13	2590.68
475.33	2691.03
475.53	2629.59
475.73	2717.65
475.93	2770.90
476.13	2809.81
476.33	2867.16
476.53	2875.35
476.73	2908.12
476.93	3147.73
477.13	2992.08
477.33	3039.19
477.53	3180.50
477.73	3338.19
477.93	3196.88
478.13	3479.50
478.33	3448.78
478.53	3532.75
478.73	3602.38
478.93	3469.26
479.13	3553.23
479.33	3725.26
479.53	3866.56
479.73	3885.00
479.93	3817.41
480.13	4136.90
480.33	4351.93
480.53	4261.82
480.73	4501.44
480.93	4540.35
481.13	4409.28
481.34	4706.23
481.54	4767.67
481.74	4976.56
481.94	5289.90
482.14	5302.19
482.34	5294.00
482.54	5552.04
482.74	5697.45
482.94	6213.54
483.14	6092.71
483.34	6295.46
483.54	6465.44
483.74	6864.79
483.94	6936.47
484.14	7288.72
484.34	7380.88
484.54	7948.17
484.74	8085.38
484.94	8253.31
485.14	8632.19
485.34	8966.01
485.54	9275.25
485.74	9611.12
485.93	10141.54
486.13	10319.71
486.33	10747.74
486.53	11384.66
486.73	11550.54
486.93	12117.83
487.13	12611.39
487.33	13186.87
487.53	13793.07
487.73	14298.92
487.93	15048.47
488.13	15529.75
488.33	16185.10
488.53	17149.69
488.73	17602.29
488.93	18556.64
489.13	19312.35
489.33	20287.18
489.53	21518.01
489.73	22154.93
489.93	22904.48
490.13	23887.51
490.33	25269.89
490.53	26078.83
490.73	27178.59
490.93	28130.90
491.13	29193.79
491.33	30570.03
491.53	31571.49
491.73	32906.76
491.93	34354.68
492.12	35302.89
492.32	36175.32
492.52	37309.89
492.72	38878.64
492.92	39298.47
493.12	40709.52
493.32	41651.59
493.52	42452.34
493.72	43222.38
493.92	44406.11
494.12	45372.75
494.32	45892.93
494.52	46462.27
494.72	47703.34
494.92	48938.26
495.12	48694.55
495.31	49405.20
495.51	50232.58
495.71	50918.65
495.91	51012.85
496.11	51520.75
496.31	51789.03
496.51	51352.82
496.71	51645.68
496.91	51715.31
497.11	52137.19
497.31	51746.03
497.51	51397.87
497.71	50863.35
497.90	50941.17
498.10	50513.15
498.30	50015.49
498.50	49517.84
498.70	48680.22
498.90	48518.43
499.10	47193.39
499.30	46378.30
499.50	45446.47
499.70	44154.21
499.89	43859.30
500.09	42564.98
500.29	41631.11
500.49	40254.87
500.69	39364.01
500.89	37957.05
501.09	36466.13
501.29	35530.21
501.49	34299.38
501.69	32820.75
501.88	32013.85
502.08	30258.74
502.28	29392.45
502.48	28251.73
502.68	26955.36
502.88	25816.69
503.08	24622.73
503.28	23369.37
503.47	22275.76
503.67	21460.66
503.87	20158.16
504.07	19013.34
504.27	18030.32
504.47	17041.15
504.67	16267.02
504.87	15316.76
505.06	14429.99
505.26	13582.13
505.46	12527.42
505.66	12263.24
505.86	11231.06
506.06	10688.35
506.26	10055.53
506.45	9690.99
506.65	9197.43
506.85	8509.31
507.05	8093.57
507.25	7694.22
507.45	7341.97
507.65	6889.37
507.84	6549.40
508.04	6420.38
508.24	6051.75
508.44	5939.11
508.64	5638.06
508.84	5558.19
509.04	5431.21
509.23	5271.47
509.43	5162.93
509.63	5031.86
509.83	4929.46
510.03	4831.16
510.23	4620.22
510.42	4517.82
510.62	4638.65
510.82	4616.12
511.02	4659.13
511.22	4585.40
511.42	4396.99
511.61	4362.17
511.81	4376.51
512.01	4362.17
512.21	4454.33
512.41	4282.30
512.60	4362.17
512.80	4298.69
513.00	4435.90
513.20	4409.28
513.40	4251.58
513.60	4566.97
513.79	4353.98
513.99	4288.45
514.19	4356.03
514.39	4358.08
514.59	4380.61
514.78	4468.67
514.98	4337.60
515.18	4315.07
515.38	4399.04
515.58	4511.68
515.77	4384.70
515.97	4280.25
516.17	4347.84
516.37	4382.65
516.57	4460.48
516.76	4364.22
516.96	4304.83
517.16	4345.79
517.36	4362.17
517.56	4491.20
517.75	4364.22
517.95	4356.03
518.15	4411.32
518.35	4464.57
518.55	4423.61
518.74	4442.04
518.94	4495.29
519.14	4503.48
519.34	4544.44
519.53	4632.51
519.73	4575.16
519.93	4480.96
520.13	4628.41
520.32	4501.44
520.52	4614.07
520.72	4720.57
520.92	4388.80
521.12	4552.63
521.31	4573.11
521.51	4556.73
521.71	4683.70
521.91	4526.01
522.10	4614.07
522.30	4558.78
522.50	4603.83
522.70	4728.76
522.89	4571.07
523.09	4675.51
523.29	4593.59
523.49	4790.20
523.68	4704.18
523.88	4833.21
524.08	4765.62
524.28	4782.01
524.47	4779.96
524.67	4806.58
524.87	4679.61
525.07	4745.14
525.26	4761.53
525.46	4837.30
525.66	4954.04
525.86	4775.86
526.05	4683.70
526.25	4865.97
526.45	4753.34
526.64	4753.34
526.84	4765.62
527.04	4872.12
527.24	4943.80
527.43	4763.58
527.63	4829.11
527.83	4954.04
528.03	4757.43
528.22	5019.57
528.42	4761.53
528.62	4954.04
528.81	4683.70
529.01	4962.23
529.21	4777.91
529.41	4872.12
529.60	5019.57
529.80	4782.01
530.00	4927.41
530.19	5001.14
530.39	5054.39
530.59	5029.81
530.79	4796.34
530.98	4810.68
531.18	4775.86
531.38	4925.36
531.57	5066.67
531.77	4892.60
531.97	4988.85
532.16	4868.02
532.36	4820.92
532.56	4782.01
532.76	4841.40
532.95	5031.86
533.15	5070.77
533.35	4982.71
533.54	4997.04
533.74	4808.63
533.94	4935.60
534.13	4880.31
534.33	4894.65
534.53	4925.36
534.72	5156.79
534.92	4982.71
535.12	4921.27
535.31	4868.02
535.51	5009.33
535.71	4964.28
535.90	5162.93
536.10	5148.59
536.30	4951.99
536.49	5054.39
536.69	4917.17
536.89	5085.11
537.08	5064.63
537.28	4984.76
537.48	5119.92
537.67	5052.34
537.87	5021.62
538.07	4960.18
538.26	4956.08
538.46	4949.94
538.66	5121.97
538.85	4984.76
539.05	5328.81
539.25	5035.96
539.44	5085.11
539.64	5081.01
539.84	5097.39
540.03	5044.15
540.23	5216.18
540.42	5175.22
540.62	5375.92
540.82	5072.82
541.01	5070.77
541.21	5117.87
541.41	5191.60
541.60	5033.91
541.80	5277.62
542.00	5027.76
542.19	5183.41
542.39	5099.44
542.58	5033.91
542.78	5257.14
542.98	5134.26
543.17	5074.87
543.37	5181.36
543.57	5207.98
543.76	5132.21
543.96	5189.55
544.15	5287.86
544.35	5318.57
544.55	5044.15
544.74	5158.83
544.94	5386.16
545.13	5240.75
545.33	5289.90
545.53	5181.36
545.72	5230.51
545.92	5171.12
546.11	5226.42
546.31	5220.27
546.51	5269.42
546.70	5332.91
546.90	5193.65
547.09	5085.11
547.29	5248.94
547.49	5255.09
547.68	5210.03
547.88	5289.90
548.07	5214.13
548.27	5330.86
548.47	5322.67
548.66	5420.97
548.86	5269.42
549.05	5230.51
549.25	5222.32
549.45	5218.22
549.64	5281.71
549.84	5210.03
550.03	5324.72
550.23	5347.25
550.42	5365.68
550.62	5222.32
550.82	5240.75
551.01	5248.94
551.21	5148.59
551.40	5283.76
551.60	5273.52
551.79	5328.81
551.99	5195.70
552.19	5248.94
552.38	5259.18
552.58	5457.84
552.77	5214.13
552.97	5377.97
553.16	5287.86
553.36	5396.40
553.55	5296.05
553.75	5494.70
553.95	5203.89
554.14	5255.09
554.34	5349.29
554.53	5341.10
554.73	5398.45
554.92	5339.05
555.12	5345.20
555.31	5310.38
555.51	5324.72
555.70	5453.74
555.90	5398.45
556.09	5322.67
556.29	5506.99
556.49	5357.49
556.68	5402.54
556.88	5427.12
557.07	5382.06
557.27	5373.87
557.46	5445.55
557.66	5396.40
557.85	5402.54
558.05	5603.24
558.24	5433.26
558.44	5425.07
558.63	5392.30
558.83	5306.29
559.02	5429.17
559.22	5328.81
559.41	5543.85
559.61	5576.62
559.80	5660.59
560.00	5361.58
560.19	5322.67
560.39	5398.45
560.58	5568.43
560.78	5312.43
560.97	5506.99
561.17	5586.86
561.36	5564.33
561.56	5377.97
561.75	5482.41
561.95	5713.83
562.14	5457.84
562.34	5459.88
562.53	5488.56
562.73	5562.28
562.92	5525.42
563.12	5533.61
563.31	5558.19
563.51	5486.51
563.70	5547.95
563.90	5437.36
564.09	5410.73
564.29	5318.57
564.48	5439.40
564.68	5371.82
564.87	5529.52
565.07	5435.31
565.26	5502.89
565.46	5547.95
565.65	5543.85
565.85	5480.36
566.04	5560.24
566.24	5552.04
566.43	5640.11
566.63	5654.44
566.82	5570.48
567.01	5457.84
567.21	5517.23
567.40	5509.04
567.60	5590.95
567.79	5642.15
567.99	5582.76
568.18	5582.76
568.38	5531.56
568.57	5709.74
568.77	5674.92
568.96	5509.04
569.15	5640.11
569.35	5656.49
569.54	5664.68
569.74	5513.13
569.93	5533.61
570.13	5683.11
570.32	5597.10
570.52	5756.84
570.71	5617.58
570.90	5545.90
571.10	5453.74
571.29	5658.54
571.49	5425.07
571.68	5468.08
571.88	5646.25
572.07	5490.60
572.26	5574.57
572.46	5492.65
572.65	5695.40
572.85	5664.68
573.04	5496.75
573.24	5609.39
573.43	5752.74
573.62	5650.35
573.82	5648.30
574.01	5584.81
574.21	5633.96
574.40	5830.57
574.59	5558.19
574.79	5582.76
574.98	5658.54
575.18	5519.28
575.37	5762.98
575.56	5535.66
575.76	5601.19
575.95	5550.00
576.15	5623.72
576.34	5527.47
576.53	5506.99
576.73	5638.06
576.92	5695.40
577.12	5709.74
577.31	5863.33
577.50	5568.43
577.70	5660.59
577.89	5506.99
578.09	5685.16
578.28	5629.87
578.47	5568.43
578.67	5674.92
578.86	5732.26
579.06	5697.45
579.25	5633.96
579.44	5541.80
579.64	5758.89
579.83	5689.26
580.02	5707.69
580.22	5584.81
580.41	5701.54
580.61	5697.45
580.80	5660.59
580.99	5593.00
581.19	5724.07
581.38	5588.91
581.57	5658.54
581.77	5658.54
581.96	5478.32
582.15	5506.99
582.35	5658.54
582.54	5705.64
582.73	5687.21
582.93	5605.29
583.12	5699.50
583.32	5564.33
583.51	5724.07
583.70	5754.79
583.90	5824.42
584.09	5672.87
584.28	5734.31
584.48	5654.44
584.67	5717.93
584.86	5558.19
585.06	5769.13
585.25	5640.11
585.44	5758.89
585.64	5740.46
585.83	5803.94
586.02	5818.28
586.22	5609.39
586.41	5666.73
586.60	5568.43
586.80	5695.40
586.99	5703.59
587.18	5908.39
587.38	5599.15
587.57	5717.93
587.76	5748.65
587.96	5713.83
588.15	5810.09
588.34	5642.15
588.53	5842.85
588.73	5732.26
588.92	5722.02
589.11	5898.15
589.31	5777.32
589.50	5730.22
589.69	5642.15
589.89	5799.85
590.08	5601.19
590.27	5713.83
590.47	5705.64
590.66	5558.19
590.85	5740.46
591.04	5619.63
591.24	5636.01
591.43	5797.80
591.62	5650.35
591.82	5672.87
592.01	5814.18
592.20	5777.32
592.39	5656.49
592.59	5830.57
592.78	5576.62
592.97	5767.08
593.17	5621.67
593.36	5631.91
593.55	5754.79
593.74	5711.78
593.94	5883.81
594.13	5746.60
594.32	5511.08
594.52	5840.81
594.71	5816.23
594.90	5695.40
595.09	5810.09
595.29	5683.11
595.48	5824.42
595.67	5779.37
595.86	5679.02
596.06	5713.83
596.25	5787.56
596.44	5662.63
596.63	5633.96
596.83	5703.59
597.02	5824.42
597.21	5533.61
597.40	5787.56
597.60	5896.10
597.79	5666.73
597.98	5633.96
598.17	5746.60
598.37	5687.21
598.56	5730.22
598.75	5631.91
598.94	5789.61
599.14	5633.96
599.33	5748.65
599.52	5765.03
599.71	5898.15
599.91	5840.81
600.10	5631.91
600.29	5656.49
600.48	5851.05
600.68	5769.13
600.87	5636.01
601.06	5885.86
601.25	5865.38
601.44	5783.46
601.64	5711.78
601.83	5996.45
602.02	5808.04
602.21	5906.34
602.41	5812.14
602.60	5773.22
602.79	5656.49
602.98	5975.97
603.17	5781.42
603.37	5871.53
603.56	5896.10
603.75	5803.94
603.94	5715.88
604.13	5793.70
604.33	5844.90
604.52	5730.22
604.71	5803.94
604.90	5785.51
605.09	5736.36
605.29	5908.39
605.48	5810.09
605.67	5709.74
605.86	5877.67
606.05	5988.26
606.25	5728.17
606.44	5664.68
606.63	6059.94
606.82	5789.61
607.01	5853.09
607.20	5830.57
607.40	5947.30
607.59	5871.53
607.78	5810.09
607.97	5742.50
608.16	5838.76
608.36	5885.86
608.55	5814.18
608.74	5990.31
608.93	5957.54
609.12	5965.73
609.31	5939.11
609.51	5959.59
609.70	5892.01
609.89	5783.46
610.08	5775.27
610.27	5767.08
610.46	6008.74
610.66	5887.91
610.85	5953.45
611.04	6008.74
611.23	5793.70
611.42	5832.62
611.61	5902.25
611.80	6045.60
612.00	5930.92
612.19	5953.45
612.38	5836.71
612.57	5992.36
612.76	5955.49
612.95	6205.35
613.14	5961.64
613.34	5969.83
613.53	5816.23
613.72	5906.34
613.91	5957.54
614.10	5980.07
614.29	5996.45
614.48	5777.32
614.67	5779.37
614.87	5918.63
615.06	5980.07
615.25	6123.43
615.44	5953.45
615.63	5834.66
615.82	5935.01
616.01	5830.57
616.20	5932.97
616.40	5926.82
616.59	6061.99
616.78	5928.87
616.97	6176.67
617.16	5855.14
617.35	6055.84
617.54	5965.73
617.73	6168.48
617.92	6033.32
618.12	5932.97
618.31	6074.28
618.50	5945.25
618.69	5953.45
618.88	5906.34
619.07	5951.40
619.26	6057.89
619.45	6143.91
619.64	6170.53
619.83	5969.83
620.02	6152.10
620.22	6010.79
620.41	6059.94
620.60	6068.13
620.79	6129.57
620.98	5822.38
621.17	5896.10
621.36	6215.59
621.55	6031.27
621.74	6246.30
621.93	6193.06
622.12	6363.04
622.31	6090.66
622.51	6223.78
622.70	5932.97
622.89	6219.68
623.08	6313.89
623.27	6045.60
623.46	6078.37
623.65	6115.23
623.84	6051.75
624.03	6244.26
624.22	6035.36
624.41	6119.33
624.60	6059.94
624.79	6203.30
624.98	6240.16
625.17	6088.61
625.36	6203.30
625.55	6125.47
625.74	6205.35
625.94	6317.98
626.13	6115.23
626.32	6074.28
626.51	6283.17
626.70	5992.36
626.89	6211.49
627.08	6184.87
627.27	6248.35
627.46	6162.34
627.65	6203.30
627.84	6117.28
628.03	6254.50
628.22	6156.19
628.41	6225.82
628.60	5877.67
628.79	6010.79
628.98	6236.06
629.17	5957.54
629.36	6174.63
629.55	6113.19
629.74	6084.52
629.93	5971.88
630.12	6111.14
630.31	6178.72
630.50	6172.58
630.69	5978.02
630.88	5951.40
631.07	6199.20
631.26	6037.41
631.45	6162.34
631.64	6195.11
631.83	6174.63
632.02	6137.76
632.21	6094.76
632.40	6148.00
632.59	5978.02
632.78	6066.08
632.97	6066.08
633.16	6094.76
633.35	6066.08
633.54	6080.42
633.73	5932.97
633.92	5797.80
634.11	5924.77
634.30	6000.55
634.49	6033.32
634.68	6051.75
634.87	6111.14
635.06	6002.60
635.25	5957.54
635.44	6129.57
635.63	5941.16
635.82	6010.79
636.01	6051.75
636.20	6166.43
636.39	6125.47
636.58	6037.41
636.77	6117.28
636.96	5896.10
637.15	6156.19
637.34	5978.02
637.53	6061.99
637.72	6123.43
637.91	5941.16
638.09	6119.33
638.28	5898.15
638.47	5971.88
638.66	5965.73
638.85	6066.08
639.04	6148.00
639.23	5918.63
639.42	6143.91
639.61	5898.15
639.80	5996.45
639.99	5928.87
640.18	6059.94
640.37	6125.47
640.56	5924.77
640.75	6047.65
640.94	5803.94
641.13	5894.05
641.32	5947.30
641.50	5994.40
641.69	5943.21
641.88	5783.46
642.07	5863.33
642.26	5969.83
642.45	5973.92
642.64	5846.95
642.83	5900.20
643.02	5971.88
643.21	5906.34
643.40	6029.22
643.59	5818.28
643.77	5715.88
643.96	6080.42
644.15	5922.73
644.34	5910.44
644.53	5939.11
644.72	5857.19
644.91	5937.06
645.10	6002.60
645.29	5943.21
645.48	5748.65
645.67	5902.25
645.85	5998.50
646.04	5879.72
646.23	6025.12
646.42	5849.00
646.61	5986.21
646.80	5826.47
646.99	5693.35
647.18	5894.05
647.37	5758.89
647.55	5808.04
647.74	5912.49
647.93	5787.56
648.12	5752.74
648.31	5883.81
648.50	5822.38
648.69	5885.86
648.88	5805.99
649.06	5859.24
649.25	5857.19
649.44	5842.85
649.63	5859.24
649.82	5779.37
650.01	5849.00
650.20	5840.81
650.39	5685.16
650.57	5973.92
650.76	5838.76
650.95	5728.17
651.14	5734.31
651.33	5681.07
651.52	5777.32
651.70	5881.77
651.89	5855.14
652.08	5748.65
652.27	5863.33
652.46	5963.68
652.65	5785.51
652.84	5849.00
653.02	5738.41
653.21	5857.19
653.40	5877.67
653.59	5674.92
653.78	5660.59
653.97	5650.35
654.15	5973.92
654.34	5795.75
654.53	5650.35
654.72	5558.19
654.91	5808.04
655.10	5896.10
655.28	5867.43
655.47	5783.46
655.66	5744.55
655.85	5779.37
656.04	5795.75
656.23	5646.25
656.41	5740.46
656.60	5810.09
656.79	5842.85
656.98	5588.91
657.17	5736.36
657.35	5703.59
657.54	5730.22
657.73	5709.74
657.92	5756.84
658.11	5771.18
658.29	5683.11
658.48	5570.48
658.67	5629.87
658.86	5660.59
659.05	5832.62
659.23	5773.22
659.42	5693.35
659.61	5752.74
659.80	5646.25
659.99	5502.89
660.17	5642.15
660.36	5525.42
660.55	5621.67
660.74	5771.18
660.92	5717.93
661.11	5586.86
661.30	5701.54
661.49	5726.12
661.68	5484.46
661.86	5701.54
662.05	5709.74
662.24	5535.66
662.43	5642.15
662.61	5623.72
662.80	5683.11
662.99	5552.04
663.18	5433.26
663.37	5506.99
663.55	5613.48
663.74	5791.66
663.93	5648.30
664.12	5654.44
664.30	5738.41
664.49	5513.13
664.68	5621.67
664.87	5476.27
665.05	5615.53
665.24	5736.36
665.43	5564.33
665.62	5418.93
665.80	5603.24
665.99	5709.74
666.18	5554.09
666.37	5609.39
666.55	5474.22
666.74	5537.71
666.93	5580.71
667.11	5490.60
667.30	5578.67
667.49	5455.79
667.68	5642.15
667.86	5519.28
668.05	5613.48
668.24	5502.89
668.43	5482.41
668.61	5552.04
668.80	5498.80
668.99	5529.52
669.17	5652.39
669.36	5617.58
669.55	5625.77
669.74	5468.08
669.92	5554.09
670.11	5556.14
670.30	5740.46
670.48	5498.80
670.67	5449.64
670.86	5519.28
671.05	5466.03
671.23	5380.01
671.42	5449.64
671.61	5492.65
671.79	5496.75
671.98	5461.93
672.17	5416.88
672.35	5668.78
672.54	5558.19
672.73	5361.58
672.91	5560.24
673.10	5316.53
673.29	5506.99
673.48	5386.16
673.66	5435.31
673.85	5402.54
674.04	5367.73
674.22	5502.89
674.41	5269.42
674.60	5609.39
674.78	5408.69
674.97	5472.17
675.16	5435.31
675.34	5310.38
675.53	5416.88
675.72	5593.00
675.90	5580.71
676.09	5492.65
676.28	5433.26
676.46	5531.56
676.65	5531.56
676.84	5595.05
677.02	5644.20
677.21	5351.34
677.40	5402.54
677.58	5451.69
677.77	5398.45
677.95	5513.13
678.14	5332.91
678.33	5308.34
678.51	5519.28
678.70	5494.70
678.89	5242.80
679.07	5330.86
679.26	5320.62
679.45	5322.67
679.63	5500.84
679.82	5525.42
680.01	5334.96
680.19	5343.15
680.38	5562.28
680.56	5468.08
680.75	5300.14
680.94	5480.36
681.12	5402.54
681.31	5535.66
681.50	5250.99
681.68	5382.06
681.87	5337.01
682.05	5314.48
682.24	5506.99
682.43	5353.39
682.61	5437.36
682.80	5263.28
682.98	5328.81
683.17	5359.53
683.36	5357.49
683.54	5476.27
683.73	5318.57
683.91	5443.50
684.10	5394.35
684.29	5625.77
684.47	5365.68
684.66	5423.02
684.84	5214.13
685.03	5265.33
685.22	5461.93
685.40	5406.64
685.59	5230.51
685.77	5400.49
685.96	5412.78
686.15	5398.45
686.33	5132.21
686.52	5451.69
686.70	5457.84
686.89	5326.77
687.07	5277.62
687.26	5263.28
687.45	5347.25
687.63	5306.29
687.82	5404.59
688.00	5390.25
688.19	5380.01
688.37	5246.90
688.56	5250.99
688.75	5382.06
688.93	5341.10
689.12	5361.58
689.30	5353.39
689.49	5181.36
689.67	5173.17
689.86	5341.10
690.04	5259.18
690.23	5214.13
690.42	5195.70
690.60	5466.03
690.79	5310.38
690.97	5330.86
691.16	5283.76
691.34	5375.92
691.53	5185.46
691.71	5263.28
691.90	5396.40
692.08	5083.06
692.27	5212.08
692.45	5298.10
692.64	4982.71
692.83	5388.21
693.01	5310.38
693.20	5154.74
693.38	5066.67
693.57	5355.44
693.75	5064.63
693.94	5195.70
694.12	5304.24
694.31	5250.99
694.49	5142.45
694.68	5240.75
694.86	5384.11
695.05	5064.63
695.23	5203.89
695.42	5253.04
695.60	5167.03
695.79	5181.36
695.97	5164.98
696.16	5291.95
696.34	5183.41
696.53	5203.89
696.71	5236.66
696.90	5054.39
697.08	5179.31
697.27	5380.01
697.45	5197.74
697.64	5214.13
697.82	5242.80
698.01	5312.43
698.19	5177.26
698.38	5177.26
698.56	5101.49
698.75	5124.02
698.93	5171.12
699.12	5257.14
699.30	5140.40
699.49	5197.74
699.67	5015.48
699.86	5074.87
700.04	5199.79
700.22	5216.18
700.41	5083.06
700.59	5210.03
700.78	5195.70
700.96	5234.61
701.15	4986.80
701.33	5132.21
701.52	5074.87
701.70	5271.47
701.89	5070.77
702.07	5103.54
702.26	5060.53
702.44	5091.25
702.62	5056.43
702.81	4863.93
702.99	5017.52
703.18	5193.65
703.36	5064.63
703.55	5175.22
703.73	5033.91
703.92	5160.88
704.10	4933.56
704.28	5156.79
704.47	5085.11
704.65	4843.45
704.84	5040.05
705.02	4992.95
705.21	5021.62
705.39	4904.89
705.57	5148.59
705.76	4956.08
705.94	5058.48
706.13	5089.20
706.31	4902.84
706.50	5005.24
706.68	4966.32
706.86	4954.04
707.05	4941.75
707.23	4792.25
707.42	4984.76
707.60	4859.83
707.78	5027.76
707.97	4908.98
708.15	5015.48
708.34	5050.29
708.52	4878.26
708.70	4843.45
708.89	4788.15
709.07	4720.57
709.26	4896.69
709.44	5050.29
709.62	4886.45
709.81	4904.89
709.99	4835.25
710.18	4882.36
710.36	4794.29
710.54	4904.89
710.73	4892.60
710.91	4841.40
711.10	5048.24
711.28	4892.60
711.46	4911.03
711.65	4878.26
711.83	4802.49
712.01	5011.38
712.20	4749.24
712.38	4743.10
712.57	4943.80
712.75	4775.86
712.93	4663.22
713.12	4923.32
713.30	4741.05
713.48	4706.23
713.67	4650.94
713.85	4827.06
714.03	4898.74
714.22	4777.91
714.40	4843.45
714.58	4616.12
714.77	4845.49
714.95	4722.62
715.14	4626.36
715.32	4739.00
715.50	4663.22
715.69	4634.55
715.87	4638.65
716.05	4712.38
716.24	4577.21
716.42	4566.97
716.60	4526.01
716.79	4779.96
716.97	4648.89
717.15	4595.64
717.34	4622.27
717.52	4667.32
717.70	4577.21
717.89	4632.51
718.07	4622.27
718.25	4599.74
718.44	4665.27
718.62	4521.92
718.80	4476.86
718.98	4614.07
719.17	4503.48
719.35	4640.70
719.53	4673.46
719.72	4657.08
719.90	4743.10
720.08	4609.98
720.27	4528.06
720.45	4550.59
720.63	4468.67
720.82	4536.25
721.00	4564.92
721.18	4540.35
721.36	4599.74
721.55	4554.68
721.73	4544.44
721.91	4501.44
722.10	4466.62
722.28	4405.18
722.46	4313.02
722.64	4382.65
722.83	4499.39
723.01	4427.71
723.19	4335.55
723.38	4284.35
723.56	4470.72
723.74	4429.76
723.92	4325.31
724.11	4487.10
724.29	4388.80
724.47	4263.87
724.65	4546.49
724.84	4237.25
725.02	4552.63
725.20	4315.07
725.39	4335.55
725.57	4296.64
725.75	4415.42
725.93	4483.00
726.12	4450.24
726.30	4218.82
726.48	4349.89
726.66	4206.53
726.85	4327.36
727.03	4407.23
727.21	4349.89
727.39	4282.30
727.58	4349.89
727.76	4233.15
727.94	4308.93
728.12	4263.87
728.30	4136.90
728.49	4161.47
728.67	4120.51
728.85	4308.93
729.03	4274.11
729.22	4249.54
729.40	4274.11
729.58	4163.52
729.76	4104.13
729.95	4147.14
730.13	4184.00
730.31	4186.05
730.49	4231.10
730.67	4157.38
730.86	4124.61
731.04	4163.52
731.22	4028.35
731.40	4120.51
731.58	4245.44
731.77	4241.34
731.95	4112.32
732.13	4169.66
732.31	3968.96
732.50	4224.96
732.68	4081.60
732.86	4091.84
733.04	4087.75
733.22	4130.75
733.40	4009.92
733.59	4218.82
733.77	3993.54
733.95	3958.72
734.13	4040.64
734.31	4163.52
734.50	4138.94
734.68	4087.75
734.86	3909.57
735.04	4032.45
735.22	3889.09
735.41	4167.62
735.59	3913.67
735.77	4040.64
735.95	4007.87
736.13	3919.81
736.31	3989.44
736.50	4044.74
736.68	4204.48
736.86	3887.04
737.04	4020.16
737.22	4057.03
737.40	3930.05
737.59	3893.19
737.77	4044.74
737.95	3827.65
738.13	3870.66
738.31	3846.09
738.49	3966.92
738.67	3717.06
738.86	3846.09
739.04	3913.67
739.22	3850.18
739.40	3862.47
739.58	3985.35
739.76	3850.18
739.94	3938.24
740.13	3964.87
740.31	3889.09
740.49	3770.31
740.67	3770.31
740.85	3798.98
741.03	3710.92
741.21	3968.96
741.39	3702.73
741.58	3794.89
741.76	3827.65
741.94	3692.49
742.12	3876.80
742.30	3858.37
742.48	3819.46
742.66	3850.18
742.84	3801.03
743.03	3731.40
743.21	3784.65
743.39	3727.30
743.57	3821.51
743.75	3723.21
743.93	3895.24
744.11	3704.78
744.29	3682.25
744.47	3770.31
744.65	3753.93
744.84	3624.90
745.02	3641.29
745.20	3667.91
745.38	3651.53
745.56	3618.76
745.74	3577.80
745.92	3674.06
746.10	3723.21
746.28	3590.09
746.46	3620.81
746.64	3741.64
746.82	3704.78
747.01	3479.50
747.19	3641.29
747.37	3528.65
747.55	3674.06
747.73	3532.75
747.91	3413.96
748.09	3495.88
748.27	3561.42
748.45	3612.62
748.63	3641.29
748.81	3510.22
748.99	3571.66
749.17	3479.50
749.35	3518.41
749.53	3483.59
749.72	3600.33
749.90	3373.00
750.08	3540.94
750.26	3540.94
750.44	3465.16
750.62	3530.70
750.80	3362.76
750.98	3344.33
751.16	3508.17
751.34	3491.79
751.52	3385.29
751.70	3444.68
751.88	3567.56
752.06	3491.79
752.24	3358.67
752.42	3395.53
752.60	3473.36
752.78	3456.97
752.96	3319.76
753.14	3481.55
753.32	3555.27
753.50	3516.36
753.68	3342.28
753.86	3471.31
754.04	3424.20
754.22	3418.06
754.40	3401.68
754.58	3235.79
754.76	3340.24
754.94	3461.07
755.12	3475.40
755.30	3327.95
755.48	3368.91
755.66	3350.48
755.84	3485.64
756.02	3358.67
756.20	3200.98
756.38	3469.26
756.56	3336.14
756.74	3444.68
756.92	3377.10
757.10	3436.49
757.28	3475.40
757.46	3284.94
757.64	3346.38
757.82	3323.85
758.00	3352.52
758.18	3321.81
758.36	3346.38
758.54	3395.53
758.72	3405.77
758.90	3229.65
759.08	3315.66
759.26	3450.83
759.44	3254.22
759.62	3393.48
759.80	3375.05
759.98	3319.76
760.16	3280.85
760.34	3297.23
760.52	3438.54
760.70	3307.47
760.88	3246.03
761.06	3219.41
761.24	3379.15
761.42	3317.71
761.60	3375.05
761.77	3186.64
761.95	3340.24
762.13	3364.81
762.31	3340.24
762.49	3350.48
762.67	3407.82
762.85	3246.03
763.03	3135.44
763.21	3164.11
763.39	3241.93
763.57	3219.41
763.75	3207.12
763.93	3243.98
764.11	3059.67
764.29	3162.06
764.46	3248.08
764.64	3223.50
764.82	3196.88
765.00	3207.12
765.18	3262.41
765.36	3190.74
765.54	3162.06
765.72	3055.57
765.90	3123.15
766.08	3127.25
766.26	3246.03
766.44	3160.02
766.61	2975.70
766.79	3098.58
766.97	3090.38
767.15	3119.06
767.33	3162.06
767.51	3088.34
767.69	3157.97
767.87	3225.55
768.05	3065.81
768.22	3160.02
768.40	3229.65
768.58	3219.41
768.76	3108.82
768.94	3135.44
769.12	2992.08
769.30	3000.27
769.48	3100.62
769.66	3094.48
769.83	2899.92
770.01	2994.13
770.19	3086.29
770.37	3059.67
770.55	2996.18
770.73	3074.00
770.91	3102.67
771.09	2990.03
771.26	3020.75
771.44	3125.20
771.62	3022.80
771.80	3006.42
771.98	3057.62
772.16	2996.18
772.34	2926.55
772.51	2920.40
772.69	3090.38
772.87	3022.80
773.05	3059.67
773.23	2944.98
773.41	2852.82
773.58	3016.66
773.76	2908.12
773.94	2899.92
774.12	3110.86
774.30	3004.37
774.48	2901.97
774.65	2742.23
774.83	2881.49
775.01	2850.77
775.19	2889.68
775.37	2963.41
775.55	3002.32
775.72	2944.98
775.90	2965.46
776.08	2871.25
776.26	3045.33
776.44	2981.84
776.61	2772.95
776.79	2869.20
776.97	2852.82
777.15	2863.06
777.33	2760.66
777.51	2889.68
777.68	2752.47
777.86	2674.65
778.04	2787.29
778.22	2852.82
778.40	2789.33
778.57	2760.66
778.75	2725.85
778.93	2731.99
779.11	2830.29
779.29	2820.05
779.46	2746.33
779.64	2748.37
779.82	2777.05
780.00	2734.04
780.17	2721.75
780.35	2758.61
780.53	2856.92
780.71	2967.51
780.89	2729.94
781.06	2660.31
781.24	2803.67
781.42	2811.86
781.60	2791.38
781.77	2576.34
781.95	2779.09
782.13	2785.24
782.31	2754.52
782.48	2736.09
782.66	2713.56
782.84	2811.86
783.02	2797.53
783.19	2691.03
783.37	2668.50
783.55	2756.57
783.73	2668.50
783.90	2725.85
784.08	2746.33
784.26	2625.50
784.44	2641.88
784.61	2637.78
784.79	2662.36
784.97	2637.78
785.15	2746.33
785.32	2637.78
785.50	2717.65
785.68	2834.39
785.86	2758.61
786.03	2602.97
786.21	2793.43
786.39	2633.69
786.57	2586.58
786.74	2521.05
786.92	2602.97
787.10	2684.89
787.27	2627.54
787.45	2693.08
787.63	2723.80
787.81	2680.79
787.98	2547.67
788.16	2727.89
788.34	2682.84
788.51	2605.02
788.69	2441.18
788.87	2627.54
789.04	2803.67
789.22	2672.60
789.40	2564.06
789.58	2539.48
789.75	2633.69
789.93	2734.04
790.11	2672.60
790.28	2617.30
790.46	2770.90
790.64	2648.02
790.81	2475.99
790.99	2764.76
791.17	2592.73
791.34	2738.13
791.52	2435.03
791.70	2582.49
791.87	2721.75
792.05	2713.56
792.23	2529.24
792.40	2555.86
792.58	2398.17
792.76	2611.16
792.93	2559.96
793.11	2498.52
793.29	2639.83
793.46	2617.30
793.64	2578.39
793.82	2578.39
793.99	2467.80
794.17	2455.51
794.35	2398.17
794.52	2631.64
794.70	2600.92
794.88	2584.54
795.05	2588.63
795.23	2492.38
795.41	2488.28
795.58	2445.27
795.76	2605.02
795.94	2379.74
796.11	2510.81
796.29	2508.76
796.46	2605.02
796.64	2406.36
796.82	2523.10
796.99	2502.62
797.17	2484.19
797.35	2631.64
797.52	2502.62
797.70	2580.44
797.87	2598.87
798.05	2586.58
798.23	2631.64
798.40	2566.10
798.58	2451.42
798.76	2410.46
798.93	2588.63
799.11	2406.36
799.28	2543.58
799.46	2414.56
799.64	2469.85
799.81	2510.81
799.99	2504.67
800.16	2447.32
800.34	2443.23
800.52	2328.54
800.69	2357.21
800.87	2387.93
801.04	2605.02
801.22	2465.75
801.39	2539.48
801.57	2324.44
801.75	2306.01
801.92	2447.32
802.10	2394.08
802.27	2342.88
802.45	2463.71
802.63	2478.04
802.80	2500.57
802.98	2426.84
803.15	2488.28
803.33	2430.94
803.50	2482.14
803.68	2357.21
803.86	2553.82
804.03	2510.81
804.21	2523.10
804.38	2451.42
804.56	2504.67
804.73	2512.86
804.91	2303.96
805.08	2416.60
805.26	2379.74
805.44	2400.22
805.61	2455.51
805.79	2332.64
805.96	2387.93
806.14	2340.83
806.31	2342.88
806.49	2494.43
806.66	2471.90
806.84	2381.79
807.01	2510.81
807.19	2371.55
807.36	2351.07
807.54	2414.56
807.71	2293.72
807.89	2357.21
808.07	2334.68
808.24	2291.68
808.42	2375.64
808.59	2392.03
808.77	2414.56
808.94	2471.90
809.12	2414.56
809.29	2377.69
809.47	2242.53
809.64	2418.65
809.82	2371.55
809.99	2297.82
810.17	2336.73
810.34	2432.99
810.52	2201.57
810.69	2322.40
810.87	2281.44
811.04	2289.63
811.22	2439.13
811.39	2346.97
811.57	2297.82
811.74	2332.64
811.92	2322.40
812.09	2414.56
812.27	2392.03
812.44	2289.63
812.62	2375.64
812.79	2463.71
812.97	2441.18
813.14	2357.21
813.31	2269.15
813.49	2439.13
813.66	2320.35
813.84	2318.30
814.01	2320.35
814.19	2254.81
814.36	2328.54
814.54	2369.50
814.71	2301.92
814.89	2408.41
815.06	2428.89
815.24	2312.16
815.41	2287.58
815.58	2279.39
815.76	2445.27
815.93	2361.31
816.11	2404.32
816.28	2154.46
816.46	2369.50
816.63	2383.84
816.81	2224.09
816.98	2324.44
817.15	2351.07
817.33	2353.12
817.50	2273.25
817.68	2236.38
817.85	2349.02
818.03	2226.14
818.20	2201.57
818.37	2275.29
818.55	2312.16
818.72	2240.48
818.90	2205.66
819.07	2324.44
819.25	2426.84
819.42	2158.56
819.59	2154.46
819.77	2183.13
819.94	2340.83
820.12	2320.35
820.29	2383.84
820.46	2336.73
820.64	2334.68
820.81	2160.61
820.99	2201.57
821.16	2224.09
821.33	2308.06
821.51	2406.36
821.68	2230.24
821.86	2373.60
822.03	2230.24
822.20	2371.55
822.38	2291.68
822.55	2252.77
822.73	2201.57
822.90	2244.57
823.07	2248.67
823.25	2361.31
823.42	2146.27
823.59	2258.91
823.77	2209.76
823.94	2267.10
824.12	2279.39
824.29	2217.95
824.46	2144.22
824.64	2222.05
824.81	2318.30
824.98	2172.89
825.16	2281.44
825.33	2029.54
825.50	2187.23
825.68	2287.58
825.85	2168.80
826.03	2326.49
826.20	2131.94
826.37	2166.75
826.55	2207.71
826.72	2191.33
826.89	2213.85
827.07	2207.71
827.24	2082.78
827.41	2181.09
827.59	2185.18
827.76	2295.77
827.93	2127.84
828.11	2113.50
828.28	2172.89
828.45	2230.24
828.63	2090.98
828.80	2158.56
828.97	2142.18
829.15	2170.85
829.32	2168.80
829.49	2142.18
829.67	2060.26
829.84	2084.83
830.01	2095.07
830.18	2170.85
830.36	2189.28
830.53	2086.88
830.70	2172.89
830.88	2064.35
831.05	2183.13
831.22	2193.37
831.40	2029.54
831.57	2136.03
831.74	2254.81
831.91	2250.72
832.09	2193.37
832.26	2111.46
832.43	2226.14
832.61	2203.61
832.78	2115.55
832.95	1992.67
833.13	2140.13
833.30	2066.40
833.47	2252.77
833.64	2033.63
833.82	2113.50
833.99	2070.50
834.16	2060.26
834.33	2123.74
834.51	2183.13
834.68	2224.09
834.85	2095.07
835.03	2109.41
835.20	1982.43
835.37	2078.69
835.54	2041.82
835.72	2162.66
835.89	2052.06
836.06	2119.65
836.23	2039.78
836.41	2066.40
836.58	2062.30
836.75	2142.18
836.92	1988.58
837.10	1953.76
837.27	2043.87
837.44	2117.60
837.61	2002.91
837.78	2183.13
837.96	2074.59
838.13	2109.41
838.30	2109.41
838.47	2172.89
838.65	1925.09
838.82	1912.80
838.99	2027.49
839.16	1937.38
839.34	2037.73
839.51	1961.95
839.68	2043.87
839.85	2160.61
840.02	2050.02
840.20	1951.71
840.37	2009.06
840.54	1923.04
840.71	2197.47
840.88	1955.81
841.06	1961.95
841.23	2078.69
841.40	2068.45
841.57	2045.92
841.74	1847.27
841.92	1935.33
842.09	1980.39
842.26	2123.74
842.43	1849.32
842.60	1937.38
842.78	1916.90
842.95	1861.60
843.12	1990.63
843.29	1970.15
843.46	2019.30
843.64	1871.84
843.81	1912.80
843.98	2015.20
844.15	2007.01
844.32	1943.52
844.49	1998.82
844.67	1992.67
844.84	2058.21
845.01	1982.43
845.18	1918.95
845.35	1968.10
845.52	1802.21
845.70	2021.35
845.87	2050.02
846.04	2064.35
846.21	1877.99
846.38	1970.15
846.55	1859.56
846.72	1937.38
846.90	1986.53
847.07	1847.27
847.24	1849.32
847.41	1923.04
847.58	1777.64
847.75	1945.57
847.92	1927.14
848.10	2002.91
848.27	1890.28
848.44	1904.61
848.61	1861.60
848.78	1941.47
848.95	1826.79
849.12	1943.52
849.29	1863.65
849.47	1964.00
849.64	1892.32
849.81	1996.77
849.98	1943.52
850.15	1906.66
850.32	1941.47
850.49	1789.92
850.66	1767.40
850.84	1845.22
851.01	1791.97
851.18	1755.11
851.35	1701.86
851.52	1830.88
851.69	1902.56
851.86	1933.28
852.03	1902.56
852.20	1777.64
852.37	1834.98
852.54	1925.09
852.72	1906.66
852.89	2000.87
853.06	1834.98
853.23	1830.88
853.40	1761.25
853.57	1638.38
853.74	1855.46
853.91	1718.25
854.08	1742.82
854.25	1646.57
854.42	1812.45
854.59	1949.67
854.76	1814.50
854.94	1722.34
855.11	1814.50
855.28	1734.63
855.45	1906.66
855.62	1787.88
855.79	1800.16
855.96	1763.30
856.13	1726.44
856.30	1691.62
856.47	1785.83
856.64	1783.78
856.81	1765.35
856.98	1763.30
857.15	1759.21
857.32	1642.47
857.49	1783.78
857.66	1714.15
857.83	1767.40
858.00	1865.70
858.17	1830.88
858.35	1669.09
858.52	1847.27
858.69	1734.63
858.86	1519.59
859.03	1812.45
859.20	1742.82
859.37	1708.01
859.54	1701.86
859.71	1767.40
859.88	1671.14
860.05	1665.00
860.22	1716.20
860.39	1763.30
860.56	1679.33
860.73	1675.24
860.90	1705.96
861.07	1748.97
861.24	1650.66
861.41	1724.39
861.58	1673.19
861.75	1566.70
861.92	1644.52
862.09	1691.62
862.26	1695.72
862.43	1718.25
862.60	1742.82
862.77	1845.22
862.94	1650.66
863.11	1746.92
863.28	1710.05
863.45	1595.37
863.62	1624.04
863.79	1611.75
863.96	1722.34
864.13	1757.16
864.30	1564.65
864.46	1632.23
864.63	1716.20
864.80	1658.85
864.97	1785.83
865.14	1560.55
865.31	1605.61
865.48	1693.67
865.65	1642.47
865.82	1708.01
865.99	1728.49
866.16	1679.33
866.33	1630.18
866.50	1613.80
866.67	1822.69
866.84	1685.48
867.01	1738.73
867.18	1681.38
867.35	1787.88
867.52	1751.01
867.69	1703.91
867.85	1533.93
868.02	1636.33
868.19	1757.16
868.36	1525.74
868.53	1710.05
868.70	1689.57
868.87	1630.18
869.04	1626.09
869.21	1601.51
869.38	1603.56
869.55	1837.03
869.72	1703.91
869.89	1605.61
870.05	1597.42
870.22	1576.94
870.39	1525.74
870.56	1732.58
870.73	1652.71
870.90	1740.77
871.07	1562.60
871.24	1566.70
871.41	1642.47
871.58	1699.81
871.74	1535.98
871.91	1456.11
872.08	1630.18
872.25	1544.17
872.42	1538.02
872.59	1568.74
872.76	1560.55
872.93	1736.68
873.10	1634.28
873.26	1566.70
873.43	1675.24
873.60	1640.42
873.77	1462.25
873.94	1525.74
874.11	1660.90
874.28	1669.09
874.45	1644.52
874.61	1488.87
874.78	1525.74
874.95	1570.79
875.12	1544.17
875.29	1613.80
875.46	1517.54
875.63	1685.48
875.79	1546.22
875.96	1527.78
876.13	1535.98
876.30	1550.31
876.47	1525.74
876.64	1591.27
876.80	1535.98
876.97	1560.55
877.14	1587.18
877.31	1683.43
877.48	1617.90
877.65	1585.13
877.81	1630.18
877.98	1535.98
878.15	1669.09
878.32	1535.98
878.49	1703.91
878.66	1576.94
878.82	1552.36
878.99	1658.85
879.16	1476.59
879.33	1497.07
879.50	1611.75
879.67	1650.66
879.83	1472.49
880.00	1529.83
880.17	1585.13
880.34	1546.22
880.51	1429.48
880.67	1570.79
880.84	1621.99
881.01	1587.18
881.18	1505.26
881.35	1509.35
881.51	1544.17
881.68	1675.24
881.85	1669.09
882.02	1439.72
882.18	1574.89
882.35	1480.68
882.52	1511.40
882.69	1599.46
882.86	1615.85
883.02	1429.48
883.19	1523.69
883.36	1673.19
883.53	1507.30
883.69	1509.35
883.86	1445.87
884.03	1589.22
884.20	1507.30
884.36	1550.31
884.53	1574.89
884.70	1511.40
884.87	1503.21
885.04	1611.75
885.20	1581.03
885.37	1535.98
885.54	1605.61
885.71	1478.63
885.87	1505.26
886.04	1421.29
886.21	1597.42
886.38	1576.94
886.54	1523.69
886.71	1554.41
886.88	1544.17
>>>>>End Processed Spectral Data<<<<<
