SpectraSuite Data File
++++++++++++++++++++++++++++++++++++
Date: Fri May 01 10:35:44 EST 2015
User: ocean
Dark Spectrum Present: No
Reference Spectrum Present: No
Number of Sampled Component Spectra: 1
Spectrometers: USB4E02642
Integration Time (usec): 150000 (USB4E02642)
Spectra Averaged: 1 (USB4E02642)
Boxcar Smoothing: 0 (USB4E02642)
Correct for Electrical Dark: No (USB4E02642)
Strobe/Lamp Enabled: No (USB4E02642)
Correct for Detector Non-linearity: No (USB4E02642)
Correct for Stray Light: No (USB4E02642)
Number of Pixels in Processed Spectrum: 3648
>>>>>Begin Processed Spectral Data<<<<<
179.22	1050.61
179.43	1050.61
179.65	1050.61
179.86	1048.56
180.08	1064.94
180.29	1337.32
180.51	1257.45
180.72	1382.38
180.94	1279.98
181.15	1220.59
181.37	1316.84
181.58	1228.78
181.80	1228.78
182.01	1251.31
182.23	1396.71
182.44	1318.89
182.66	1226.73
182.87	1290.22
183.09	1228.78
183.30	1224.69
183.52	1286.12
183.73	1282.03
183.95	1449.96
184.16	1267.69
184.38	1366.00
184.59	1304.56
184.81	1267.69
185.02	1339.37
185.24	1232.88
185.45	1310.70
185.67	1322.99
185.88	1331.18
186.10	1185.77
186.31	1243.12
186.53	1318.89
186.74	1267.69
186.96	1290.22
187.17	1312.75
187.39	1251.31
187.60	1325.04
187.81	1478.63
188.03	1345.52
188.24	1292.27
188.46	1308.65
188.67	1421.29
188.89	1196.01
189.10	1415.15
189.32	1331.18
189.53	1308.65
189.75	1363.95
189.96	1464.30
190.18	1390.57
190.39	1216.49
190.61	1304.56
190.82	1230.83
191.04	1392.62
191.25	1490.92
191.46	1337.32
191.68	1273.84
191.89	1380.33
192.11	1306.60
192.32	1392.62
192.54	1191.92
192.75	1282.03
192.97	1288.17
193.18	1325.04
193.40	1359.85
193.61	1366.00
193.83	1423.34
194.04	1337.32
194.25	1351.66
194.47	1349.61
194.68	1339.37
194.90	1249.26
195.11	1335.28
195.33	1279.98
195.54	1376.24
195.76	1327.08
195.97	1306.60
196.18	1380.33
196.40	1417.19
196.61	1296.36
196.83	1433.58
197.04	1320.94
197.26	1499.11
197.47	1337.32
197.69	1212.40
197.90	1347.56
198.11	1351.66
198.33	1425.39
198.54	1210.35
198.76	1400.81
198.97	1286.12
199.19	1284.08
199.40	1279.98
199.61	1236.97
199.83	1267.69
200.04	1390.57
200.26	1351.66
200.47	1308.65
200.69	1279.98
200.90	1333.23
201.11	1288.17
201.33	1196.01
201.54	1374.19
201.76	1347.56
201.97	1243.12
202.19	1351.66
202.40	1400.81
202.61	1366.00
202.83	1286.12
203.04	1298.41
203.26	1296.36
203.47	1286.12
203.68	1421.29
203.90	1296.36
204.11	1304.56
204.33	1200.11
204.54	1394.67
204.75	1288.17
204.97	1322.99
205.18	1218.54
205.40	1193.97
205.61	1415.15
205.83	1478.63
206.04	1224.69
206.25	1322.99
206.47	1419.24
206.68	1431.53
206.90	1308.65
207.11	1243.12
207.32	1263.60
207.54	1318.89
207.75	1322.99
207.97	1306.60
208.18	1286.12
208.39	1286.12
208.61	1304.56
208.82	1400.81
209.03	1339.37
209.25	1415.15
209.46	1357.80
209.68	1296.36
209.89	1308.65
210.10	1339.37
210.32	1343.47
210.53	1411.05
210.75	1474.54
210.96	1226.73
211.17	1308.65
211.39	1376.24
211.60	1263.60
211.82	1275.88
212.03	1327.08
212.24	1320.94
212.46	1335.28
212.67	1366.00
212.88	1275.88
213.10	1286.12
213.31	1341.42
213.53	1349.61
213.74	1374.19
213.95	1314.80
214.17	1300.46
214.38	1382.38
214.59	1325.04
214.81	1464.30
215.02	1298.41
215.23	1236.97
215.45	1275.88
215.66	1269.74
215.88	1302.51
216.09	1265.64
216.30	1257.45
216.52	1357.80
216.73	1159.15
216.94	1359.85
217.16	1345.52
217.37	1429.48
217.58	1271.79
217.80	1484.78
218.01	1341.42
218.22	1392.62
218.44	1296.36
218.65	1404.91
218.87	1320.94
219.08	1363.95
219.29	1296.36
219.51	1361.90
219.72	1378.28
219.93	1294.32
220.15	1415.15
220.36	1259.50
220.57	1376.24
220.79	1265.64
221.00	1273.84
221.21	1445.87
221.43	1343.47
221.64	1249.26
221.85	1343.47
222.07	1392.62
222.28	1312.75
222.49	1355.76
222.71	1351.66
222.92	1265.64
223.13	1193.97
223.35	1202.16
223.56	1394.67
223.77	1200.11
223.99	1320.94
224.20	1441.77
224.41	1269.74
224.63	1374.19
224.84	1271.79
225.05	1464.30
225.27	1359.85
225.48	1470.44
225.69	1331.18
225.91	1226.73
226.12	1339.37
226.33	1525.74
226.55	1267.69
226.76	1236.97
226.97	1322.99
227.19	1341.42
227.40	1271.79
227.61	1251.31
227.82	1251.31
228.04	1279.98
228.25	1322.99
228.46	1210.35
228.68	1329.13
228.89	1300.46
229.10	1275.88
229.32	1398.76
229.53	1331.18
229.74	1316.84
229.96	1355.76
230.17	1415.15
230.38	1466.35
230.59	1298.41
230.81	1261.55
231.02	1236.97
231.23	1290.22
231.45	1337.32
231.66	1335.28
231.87	1304.56
232.09	1312.75
232.30	1226.73
232.51	1298.41
232.72	1279.98
232.94	1179.63
233.15	1435.63
233.36	1292.27
233.58	1236.97
233.79	1310.70
234.00	1363.95
234.21	1347.56
234.43	1341.42
234.64	1306.60
234.85	1384.43
235.07	1310.70
235.28	1415.15
235.49	1228.78
235.70	1464.30
235.92	1329.13
236.13	1361.90
236.34	1335.28
236.56	1275.88
236.77	1255.40
236.98	1351.66
237.19	1306.60
237.41	1331.18
237.62	1310.70
237.83	1435.63
238.04	1368.04
238.26	1382.38
238.47	1462.25
238.68	1396.71
238.89	1236.97
239.11	1437.67
239.32	1404.91
239.53	1411.05
239.75	1286.12
239.96	1331.18
240.17	1202.16
240.38	1265.64
240.60	1320.94
240.81	1370.09
241.02	1413.10
241.23	1286.12
241.45	1345.52
241.66	1230.83
241.87	1327.08
242.08	1447.91
242.30	1259.50
242.51	1411.05
242.72	1265.64
242.93	1361.90
243.15	1290.22
243.36	1419.24
243.57	1284.08
243.78	1376.24
244.00	1331.18
244.21	1218.54
244.42	1382.38
244.63	1409.00
244.85	1304.56
245.06	1282.03
245.27	1415.15
245.48	1308.65
245.70	1366.00
245.91	1439.72
246.12	1251.31
246.33	1372.14
246.54	1519.59
246.76	1347.56
246.97	1363.95
247.18	1333.23
247.39	1200.11
247.61	1431.53
247.82	1290.22
248.03	1337.32
248.24	1308.65
248.45	1343.47
248.67	1353.71
248.88	1374.19
249.09	1333.23
249.30	1378.28
249.52	1325.04
249.73	1411.05
249.94	1413.10
250.15	1425.39
250.36	1363.95
250.58	1558.50
250.79	1351.66
251.00	1284.08
251.21	1417.19
251.43	1298.41
251.64	1503.21
251.85	1279.98
252.06	1452.01
252.27	1363.95
252.49	1435.63
252.70	1370.09
252.91	1239.02
253.12	1308.65
253.33	1320.94
253.55	1257.45
253.76	1292.27
253.97	1337.32
254.18	1253.36
254.39	1351.66
254.61	1302.51
254.82	1282.03
255.03	1454.06
255.24	1282.03
255.45	1312.75
255.67	1282.03
255.88	1298.41
256.09	1236.97
256.30	1310.70
256.51	1482.73
256.73	1325.04
256.94	1294.32
257.15	1394.67
257.36	1267.69
257.57	1349.61
257.78	1271.79
258.00	1273.84
258.21	1480.68
258.42	1374.19
258.63	1296.36
258.84	1304.56
259.06	1269.74
259.27	1357.80
259.48	1263.60
259.69	1366.00
259.90	1234.93
260.11	1470.44
260.33	1316.84
260.54	1314.80
260.75	1361.90
260.96	1368.04
261.17	1370.09
261.38	1372.14
261.60	1347.56
261.81	1341.42
262.02	1361.90
262.23	1322.99
262.44	1335.28
262.65	1329.13
262.87	1318.89
263.08	1363.95
263.29	1366.00
263.50	1396.71
263.71	1337.32
263.92	1310.70
264.13	1308.65
264.35	1329.13
264.56	1308.65
264.77	1349.61
264.98	1304.56
265.19	1204.21
265.40	1341.42
265.62	1366.00
265.83	1320.94
266.04	1435.63
266.25	1435.63
266.46	1316.84
266.67	1429.48
266.88	1300.46
267.10	1347.56
267.31	1316.84
267.52	1308.65
267.73	1271.79
267.94	1269.74
268.15	1308.65
268.36	1249.26
268.57	1402.86
268.79	1368.04
269.00	1347.56
269.21	1234.93
269.42	1263.60
269.63	1298.41
269.84	1302.51
270.05	1265.64
270.27	1298.41
270.48	1310.70
270.69	1218.54
270.90	1327.08
271.11	1429.48
271.32	1492.97
271.53	1241.07
271.74	1261.55
271.96	1312.75
272.17	1349.61
272.38	1300.46
272.59	1208.30
272.80	1314.80
273.01	1345.52
273.22	1290.22
273.43	1386.47
273.64	1263.60
273.86	1480.68
274.07	1253.36
274.28	1265.64
274.49	1411.05
274.70	1292.27
274.91	1327.08
275.12	1394.67
275.33	1224.69
275.54	1263.60
275.76	1331.18
275.97	1288.17
276.18	1304.56
276.39	1302.51
276.60	1284.08
276.81	1386.47
277.02	1357.80
277.23	1357.80
277.44	1318.89
277.65	1308.65
277.86	1308.65
278.08	1355.76
278.29	1353.71
278.50	1388.52
278.71	1316.84
278.92	1214.45
279.13	1312.75
279.34	1306.60
279.55	1300.46
279.76	1421.29
279.97	1259.50
280.18	1437.67
280.40	1406.95
280.61	1277.93
280.82	1284.08
281.03	1236.97
281.24	1402.86
281.45	1279.98
281.66	1212.40
281.87	1300.46
282.08	1290.22
282.29	1411.05
282.50	1226.73
282.71	1234.93
282.92	1490.92
283.13	1402.86
283.35	1359.85
283.56	1292.27
283.77	1181.68
283.98	1341.42
284.19	1314.80
284.40	1275.88
284.61	1304.56
284.82	1415.15
285.03	1339.37
285.24	1249.26
285.45	1236.97
285.66	1298.41
285.87	1341.42
286.08	1318.89
286.29	1329.13
286.50	1382.38
286.71	1232.88
286.93	1345.52
287.14	1263.60
287.35	1398.76
287.56	1322.99
287.77	1363.95
287.98	1361.90
288.19	1429.48
288.40	1304.56
288.61	1234.93
288.82	1333.23
289.03	1390.57
289.24	1378.28
289.45	1439.72
289.66	1339.37
289.87	1355.76
290.08	1251.31
290.29	1304.56
290.50	1378.28
290.71	1275.88
290.92	1458.15
291.13	1363.95
291.34	1402.86
291.55	1296.36
291.76	1247.21
291.97	1226.73
292.18	1345.52
292.39	1310.70
292.61	1353.71
292.82	1204.21
293.03	1511.40
293.24	1239.02
293.45	1251.31
293.66	1306.60
293.87	1341.42
294.08	1292.27
294.29	1327.08
294.50	1402.86
294.71	1396.71
294.92	1187.82
295.13	1329.13
295.34	1210.35
295.55	1251.31
295.76	1327.08
295.97	1378.28
296.18	1423.34
296.39	1353.71
296.60	1406.95
296.81	1265.64
297.02	1269.74
297.23	1392.62
297.44	1353.71
297.65	1429.48
297.86	1251.31
298.07	1247.21
298.28	1382.38
298.49	1304.56
298.70	1259.50
298.91	1335.28
299.12	1296.36
299.33	1247.21
299.54	1415.15
299.75	1277.93
299.96	1327.08
300.17	1329.13
300.38	1271.79
300.59	1239.02
300.80	1372.14
301.01	1351.66
301.22	1310.70
301.43	1363.95
301.64	1249.26
301.85	1239.02
302.06	1427.43
302.27	1294.32
302.48	1443.82
302.69	1261.55
302.89	1345.52
303.10	1310.70
303.31	1234.93
303.52	1359.85
303.73	1353.71
303.94	1269.74
304.15	1284.08
304.36	1255.40
304.57	1249.26
304.78	1286.12
304.99	1351.66
305.20	1294.32
305.41	1443.82
305.62	1417.19
305.83	1288.17
306.04	1249.26
306.25	1380.33
306.46	1273.84
306.67	1374.19
306.88	1427.43
307.09	1279.98
307.30	1200.11
307.51	1376.24
307.72	1288.17
307.93	1224.69
308.14	1267.69
308.35	1327.08
308.55	1374.19
308.76	1241.07
308.97	1292.27
309.18	1402.86
309.39	1355.76
309.60	1265.64
309.81	1380.33
310.02	1210.35
310.23	1234.93
310.44	1243.12
310.65	1312.75
310.86	1331.18
311.07	1380.33
311.28	1255.40
311.49	1327.08
311.70	1366.00
311.91	1298.41
312.11	1308.65
312.32	1288.17
312.53	1302.51
312.74	1400.81
312.95	1312.75
313.16	1546.22
313.37	1337.32
313.58	1198.06
313.79	1148.91
314.00	1325.04
314.21	1259.50
314.42	1284.08
314.63	1292.27
314.83	1372.14
315.04	1388.52
315.25	1462.25
315.46	1427.43
315.67	1329.13
315.88	1261.55
316.09	1357.80
316.30	1308.65
316.51	1349.61
316.72	1288.17
316.93	1241.07
317.13	1413.10
317.34	1261.55
317.55	1390.57
317.76	1259.50
317.97	1282.03
318.18	1284.08
318.39	1478.63
318.60	1402.86
318.81	1279.98
319.02	1413.10
319.23	1388.52
319.43	1406.95
319.64	1333.23
319.85	1292.27
320.06	1361.90
320.27	1366.00
320.48	1308.65
320.69	1337.32
320.90	1204.21
321.11	1282.03
321.31	1357.80
321.52	1374.19
321.73	1419.24
321.94	1329.13
322.15	1300.46
322.36	1390.57
322.57	1466.35
322.78	1259.50
322.98	1372.14
323.19	1304.56
323.40	1210.35
323.61	1296.36
323.82	1294.32
324.03	1275.88
324.24	1443.82
324.45	1345.52
324.65	1265.64
324.86	1415.15
325.07	1439.72
325.28	1286.12
325.49	1374.19
325.70	1290.22
325.91	1337.32
326.12	1296.36
326.32	1261.55
326.53	1214.45
326.74	1259.50
326.95	1310.70
327.16	1343.47
327.37	1435.63
327.58	1275.88
327.78	1243.12
327.99	1255.40
328.20	1380.33
328.41	1259.50
328.62	1284.08
328.83	1316.84
329.04	1320.94
329.24	1302.51
329.45	1304.56
329.66	1298.41
329.87	1353.71
330.08	1382.38
330.29	1312.75
330.49	1519.59
330.70	1259.50
330.91	1277.93
331.12	1308.65
331.33	1376.24
331.54	1302.51
331.74	1255.40
331.95	1310.70
332.16	1267.69
332.37	1236.97
332.58	1374.19
332.79	1331.18
332.99	1236.97
333.20	1370.09
333.41	1335.28
333.62	1386.47
333.83	1282.03
334.04	1273.84
334.24	1322.99
334.45	1183.73
334.66	1304.56
334.87	1345.52
335.08	1353.71
335.29	1263.60
335.49	1386.47
335.70	1441.77
335.91	1259.50
336.12	1431.53
336.33	1226.73
336.53	1363.95
336.74	1343.47
336.95	1357.80
337.16	1259.50
337.37	1322.99
337.57	1296.36
337.78	1236.97
337.99	1331.18
338.20	1259.50
338.41	1255.40
338.62	1282.03
338.82	1413.10
339.03	1210.35
339.24	1290.22
339.45	1370.09
339.65	1277.93
339.86	1320.94
340.07	1423.34
340.28	1316.84
340.49	1357.80
340.69	1279.98
340.90	1325.04
341.11	1333.23
341.32	1382.38
341.53	1243.12
341.73	1314.80
341.94	1378.28
342.15	1370.09
342.36	1417.19
342.57	1470.44
342.77	1327.08
342.98	1308.65
343.19	1292.27
343.40	1292.27
343.60	1337.32
343.81	1318.89
344.02	1329.13
344.23	1351.66
344.44	1271.79
344.64	1245.16
344.85	1310.70
345.06	1251.31
345.27	1279.98
345.47	1263.60
345.68	1337.32
345.89	1320.94
346.10	1425.39
346.30	1288.17
346.51	1308.65
346.72	1394.67
346.93	1413.10
347.13	1241.07
347.34	1355.76
347.55	1232.88
347.76	1290.22
347.97	1413.10
348.17	1302.51
348.38	1304.56
348.59	1282.03
348.80	1294.32
349.00	1327.08
349.21	1312.75
349.42	1355.76
349.63	1411.05
349.83	1273.84
350.04	1245.16
350.25	1320.94
350.45	1241.07
350.66	1259.50
350.87	1320.94
351.08	1282.03
351.28	1472.49
351.49	1312.75
351.70	1409.00
351.91	1224.69
352.11	1361.90
352.32	1236.97
352.53	1404.91
352.74	1288.17
352.94	1347.56
353.15	1300.46
353.36	1421.29
353.56	1230.83
353.77	1308.65
353.98	1359.85
354.19	1366.00
354.39	1247.21
354.60	1226.73
354.81	1382.38
355.02	1169.39
355.22	1325.04
355.43	1314.80
355.64	1329.13
355.84	1343.47
356.05	1214.45
356.26	1478.63
356.47	1357.80
356.67	1370.09
356.88	1325.04
357.09	1273.84
357.29	1368.04
357.50	1419.24
357.71	1251.31
357.92	1273.84
358.12	1263.60
358.33	1359.85
358.54	1339.37
358.74	1431.53
358.95	1361.90
359.16	1308.65
359.36	1277.93
359.57	1359.85
359.78	1380.33
359.98	1331.18
360.19	1232.88
360.40	1355.76
360.61	1353.71
360.81	1286.12
361.02	1247.21
361.23	1208.30
361.43	1314.80
361.64	1259.50
361.85	1378.28
362.05	1335.28
362.26	1275.88
362.47	1241.07
362.67	1236.97
362.88	1349.61
363.09	1279.98
363.29	1243.12
363.50	1253.36
363.71	1325.04
363.91	1288.17
364.12	1396.71
364.33	1214.45
364.53	1349.61
364.74	1284.08
364.95	1363.95
365.15	1322.99
365.36	1232.88
365.57	1355.76
365.77	1329.13
365.98	1347.56
366.19	1357.80
366.39	1333.23
366.60	1318.89
366.81	1202.16
367.01	1443.82
367.22	1351.66
367.43	1427.43
367.63	1333.23
367.84	1320.94
368.05	1374.19
368.25	1402.86
368.46	1275.88
368.67	1191.92
368.87	1329.13
369.08	1282.03
369.29	1220.59
369.49	1302.51
369.70	1349.61
369.91	1347.56
370.11	1282.03
370.32	1253.36
370.52	1325.04
370.73	1363.95
370.94	1308.65
371.14	1329.13
371.35	1304.56
371.56	1372.14
371.76	1339.37
371.97	1529.83
372.18	1279.98
372.38	1290.22
372.59	1275.88
372.79	1333.23
373.00	1349.61
373.21	1413.10
373.41	1282.03
373.62	1275.88
373.83	1271.79
374.03	1296.36
374.24	1290.22
374.44	1384.43
374.65	1380.33
374.86	1349.61
375.06	1333.23
375.27	1292.27
375.47	1361.90
375.68	1394.67
375.89	1292.27
376.09	1470.44
376.30	1282.03
376.50	1361.90
376.71	1355.76
376.92	1351.66
377.12	1404.91
377.33	1290.22
377.54	1310.70
377.74	1357.80
377.95	1468.39
378.15	1265.64
378.36	1327.08
378.57	1460.20
378.77	1400.81
378.98	1349.61
379.18	1273.84
379.39	1316.84
379.59	1218.54
379.80	1259.50
380.01	1273.84
380.21	1357.80
380.42	1327.08
380.62	1382.38
380.83	1234.93
381.04	1243.12
381.24	1402.86
381.45	1325.04
381.65	1370.09
381.86	1165.29
382.06	1480.68
382.27	1306.60
382.48	1271.79
382.68	1316.84
382.89	1380.33
383.09	1421.29
383.30	1302.51
383.51	1349.61
383.71	1329.13
383.92	1298.41
384.12	1251.31
384.33	1398.76
384.53	1257.45
384.74	1349.61
384.94	1355.76
385.15	1322.99
385.36	1353.71
385.56	1327.08
385.77	1316.84
385.97	1257.45
386.18	1243.12
386.38	1230.83
386.59	1212.40
386.79	1286.12
387.00	1251.31
387.21	1462.25
387.41	1347.56
387.62	1337.32
387.82	1292.27
388.03	1349.61
388.23	1249.26
388.44	1345.52
388.64	1259.50
388.85	1322.99
389.06	1372.14
389.26	1296.36
389.47	1370.09
389.67	1261.55
389.88	1456.11
390.08	1253.36
390.29	1341.42
390.49	1308.65
390.70	1396.71
390.90	1341.42
391.11	1320.94
391.31	1351.66
391.52	1228.78
391.72	1286.12
391.93	1161.20
392.13	1337.32
392.34	1241.07
392.55	1296.36
392.75	1296.36
392.96	1232.88
393.16	1322.99
393.37	1267.69
393.57	1300.46
393.78	1228.78
393.98	1363.95
394.19	1445.87
394.39	1310.70
394.60	1419.24
394.80	1243.12
395.01	1331.18
395.21	1441.77
395.42	1361.90
395.62	1187.82
395.83	1273.84
396.03	1374.19
396.24	1380.33
396.44	1363.95
396.65	1331.18
396.85	1245.16
397.06	1282.03
397.26	1284.08
397.47	1413.10
397.67	1376.24
397.88	1230.83
398.08	1273.84
398.29	1312.75
398.49	1384.43
398.70	1396.71
398.90	1185.77
399.11	1306.60
399.31	1447.91
399.52	1320.94
399.72	1372.14
399.93	1318.89
400.13	1286.12
400.34	1275.88
400.54	1349.61
400.75	1314.80
400.95	1380.33
401.15	1394.67
401.36	1210.35
401.56	1312.75
401.77	1335.28
401.97	1210.35
402.18	1253.36
402.38	1275.88
402.59	1331.18
402.79	1302.51
403.00	1306.60
403.20	1349.61
403.41	1243.12
403.61	1318.89
403.82	1304.56
404.02	1234.93
404.22	1282.03
404.43	1335.28
404.63	1304.56
404.84	1374.19
405.04	1267.69
405.25	1298.41
405.45	1290.22
405.66	1298.41
405.86	1286.12
406.07	1347.56
406.27	1257.45
406.47	1329.13
406.68	1304.56
406.88	1372.14
407.09	1316.84
407.29	1320.94
407.50	1243.12
407.70	1284.08
407.91	1249.26
408.11	1366.00
408.31	1314.80
408.52	1400.81
408.72	1341.42
408.93	1341.42
409.13	1409.00
409.34	1460.20
409.54	1384.43
409.74	1359.85
409.95	1351.66
410.15	1322.99
410.36	1288.17
410.56	1249.26
410.77	1347.56
410.97	1259.50
411.17	1406.95
411.38	1363.95
411.58	1372.14
411.79	1374.19
411.99	1308.65
412.19	1339.37
412.40	1368.04
412.60	1421.29
412.81	1359.85
413.01	1458.15
413.22	1411.05
413.42	1320.94
413.62	1331.18
413.83	1394.67
414.03	1335.28
414.24	1409.00
414.44	1312.75
414.64	1411.05
414.85	1269.74
415.05	1390.57
415.26	1378.28
415.46	1382.38
415.66	1337.32
415.87	1298.41
416.07	1363.95
416.28	1306.60
416.48	1435.63
416.68	1386.47
416.89	1343.47
417.09	1449.96
417.29	1255.40
417.50	1456.11
417.70	1286.12
417.91	1351.66
418.11	1306.60
418.31	1363.95
418.52	1300.46
418.72	1384.43
418.93	1382.38
419.13	1357.80
419.33	1361.90
419.54	1339.37
419.74	1400.81
419.94	1468.39
420.15	1318.89
420.35	1380.33
420.56	1425.39
420.76	1388.52
420.96	1359.85
421.17	1368.04
421.37	1329.13
421.57	1388.52
421.78	1359.85
421.98	1398.76
422.18	1509.35
422.39	1368.04
422.59	1345.52
422.80	1357.80
423.00	1388.52
423.20	1470.44
423.41	1327.08
423.61	1279.98
423.81	1368.04
424.02	1396.71
424.22	1370.09
424.42	1445.87
424.63	1376.24
424.83	1316.84
425.03	1460.20
425.24	1456.11
425.44	1415.15
425.64	1406.95
425.85	1357.80
426.05	1331.18
426.25	1435.63
426.46	1390.57
426.66	1437.67
426.86	1578.98
427.07	1458.15
427.27	1443.82
427.47	1605.61
427.68	1441.77
427.88	1447.91
428.08	1560.55
428.29	1347.56
428.49	1429.48
428.69	1662.95
428.90	1386.47
429.10	1409.00
429.30	1466.35
429.51	1443.82
429.71	1456.11
429.91	1288.17
430.12	1497.07
430.32	1603.56
430.52	1292.27
430.72	1355.76
430.93	1357.80
431.13	1421.29
431.33	1497.07
431.54	1482.73
431.74	1374.19
431.94	1406.95
432.15	1404.91
432.35	1513.45
432.55	1327.08
432.76	1456.11
432.96	1419.24
433.16	1458.15
433.36	1511.40
433.57	1480.68
433.77	1562.60
433.97	1452.01
434.18	1437.67
434.38	1394.67
434.58	1544.17
434.78	1411.05
434.99	1492.97
435.19	1568.74
435.39	1366.00
435.60	1433.58
435.80	1658.85
436.00	1445.87
436.20	1478.63
436.41	1499.11
436.61	1480.68
436.81	1501.16
437.02	1423.34
437.22	1421.29
437.42	1439.72
437.62	1464.30
437.83	1568.74
438.03	1423.34
438.23	1538.02
438.43	1533.93
438.64	1519.59
438.84	1454.06
439.04	1488.87
439.25	1607.66
439.45	1589.22
439.65	1527.78
439.85	1531.88
440.06	1447.91
440.26	1499.11
440.46	1497.07
440.66	1554.41
440.87	1495.02
441.07	1554.41
441.27	1654.76
441.47	1490.92
441.68	1480.68
441.88	1439.72
442.08	1568.74
442.28	1562.60
442.49	1472.49
442.69	1654.76
442.89	1523.69
443.09	1482.73
443.30	1398.76
443.50	1484.78
443.70	1540.07
443.90	1482.73
444.10	1540.07
444.31	1558.50
444.51	1470.44
444.71	1521.64
444.91	1568.74
445.12	1529.83
445.32	1781.73
445.52	1519.59
445.72	1513.45
445.93	1468.39
446.13	1533.93
446.33	1630.18
446.53	1630.18
446.73	1540.07
446.94	1390.57
447.14	1540.07
447.34	1419.24
447.54	1693.67
447.74	1490.92
447.95	1578.98
448.15	1513.45
448.35	1560.55
448.55	1552.36
448.76	1466.35
448.96	1521.64
449.16	1558.50
449.36	1531.88
449.56	1490.92
449.77	1646.57
449.97	1603.56
450.17	1454.06
450.37	1517.54
450.57	1566.70
450.78	1562.60
450.98	1478.63
451.18	1611.75
451.38	1505.26
451.58	1497.07
451.79	1429.48
451.99	1495.02
452.19	1472.49
452.39	1718.25
452.59	1535.98
452.79	1581.03
453.00	1554.41
453.20	1603.56
453.40	1585.13
453.60	1658.85
453.80	1597.42
454.01	1511.40
454.21	1527.78
454.41	1601.51
454.61	1650.66
454.81	1617.90
455.01	1509.35
455.22	1576.94
455.42	1669.09
455.62	1650.66
455.82	1501.16
456.02	1535.98
456.22	1642.47
456.43	1529.83
456.63	1564.65
456.83	1503.21
457.03	1554.41
457.23	1628.14
457.43	1632.23
457.64	1570.79
457.84	1525.74
458.04	1591.27
458.24	1630.18
458.44	1644.52
458.64	1617.90
458.84	1685.48
459.05	1529.83
459.25	1609.70
459.45	1540.07
459.65	1697.77
459.85	1533.93
460.05	1576.94
460.25	1658.85
460.46	1751.01
460.66	1581.03
460.86	1615.85
461.06	1695.72
461.26	1705.96
461.46	1609.70
461.66	1665.00
461.87	1740.77
462.07	1652.71
462.27	1832.93
462.47	1632.23
462.67	1728.49
462.87	1699.81
463.07	1615.85
463.27	1673.19
463.48	1630.18
463.68	1705.96
463.88	1570.79
464.08	1734.63
464.28	1710.05
464.48	1773.54
464.68	1705.96
464.88	1714.15
465.08	1652.71
465.29	1642.47
465.49	1708.01
465.69	1673.19
465.89	1888.23
466.09	1732.58
466.29	1613.80
466.49	1712.10
466.69	1697.77
466.89	1667.05
467.10	1763.30
467.30	1681.38
467.50	1939.43
467.70	1732.58
467.90	1716.20
468.10	1789.92
468.30	1734.63
468.50	1779.68
468.70	1763.30
468.90	1806.31
469.10	1716.20
469.31	1892.32
469.51	1791.97
469.71	1773.54
469.91	1839.08
470.11	1767.40
470.31	1771.49
470.51	1894.37
470.71	1849.32
470.91	1759.21
471.11	1808.36
471.31	1843.17
471.51	1982.43
471.71	1863.65
471.92	1861.60
472.12	1720.29
472.32	1806.31
472.52	1974.24
472.72	1826.79
472.92	1890.28
473.12	1964.00
473.32	1925.09
473.52	1902.56
473.72	2101.22
473.92	1984.48
474.12	2004.96
474.32	1839.08
474.52	1986.53
474.72	2000.87
474.92	1925.09
475.13	2086.88
475.33	2029.54
475.53	2025.44
475.73	2144.22
475.93	2090.98
476.13	2097.12
476.33	2197.47
476.53	2105.31
476.73	2168.80
476.93	2213.85
477.13	2297.82
477.33	2385.88
477.53	2283.49
477.73	2478.04
477.93	2357.21
478.13	2488.28
478.33	2482.14
478.53	2455.51
478.73	2654.17
478.93	2469.85
479.13	2551.77
479.33	2537.43
479.53	2801.62
479.73	2766.81
479.93	2660.31
480.13	2783.19
480.33	2912.21
480.53	2848.72
480.73	2856.92
480.93	2983.89
481.13	3014.61
481.34	3180.50
481.54	3264.46
481.74	3221.45
481.94	3319.76
482.14	3606.47
482.34	3512.27
482.54	3534.79
482.74	3729.35
482.94	3860.42
483.14	3860.42
483.34	3962.82
483.54	4120.51
483.74	4190.14
483.94	4265.92
484.14	4485.05
484.34	4421.56
484.54	4792.25
484.74	4962.23
484.94	5126.07
485.14	5275.57
485.34	5517.23
485.54	5568.43
485.74	5906.34
485.93	6006.69
486.13	6199.20
486.33	6440.86
486.53	6776.73
486.73	6854.55
486.93	7169.94
487.13	7280.53
487.33	7655.31
487.53	7909.26
487.73	8335.23
487.93	8728.44
488.13	8974.20
488.33	9480.05
488.53	9871.21
488.73	10008.42
488.93	10598.24
489.13	11140.95
489.33	11659.09
489.53	12107.59
489.73	12449.60
489.93	12818.24
490.13	13360.95
490.33	14409.51
490.53	14769.95
490.73	15042.33
490.93	15695.63
491.13	16422.66
491.33	17063.68
491.53	17954.54
491.73	18282.22
491.93	18917.09
492.12	19691.22
492.32	20057.81
492.52	21014.21
492.72	21757.62
492.92	22083.25
493.12	22746.79
493.32	23064.22
493.52	23910.04
493.72	24077.97
493.92	25015.94
494.12	25822.84
494.32	25742.97
494.52	26187.38
494.72	26492.52
494.92	27356.77
495.12	27381.34
495.31	27819.61
495.51	28393.04
495.71	28530.25
495.91	28491.34
496.11	28749.39
496.31	29095.49
496.51	29099.59
496.71	29095.49
496.91	29261.38
497.11	29466.17
497.31	28874.31
497.51	29343.30
497.71	28935.75
497.90	29013.57
498.10	28487.25
498.30	28321.36
498.50	27862.61
498.70	27647.58
498.90	27293.28
499.10	26748.52
499.30	26340.97
499.50	26007.16
499.70	25069.19
499.89	24905.35
500.09	23742.10
500.29	23361.18
500.49	22916.77
500.69	22036.14
500.89	21556.92
501.09	20659.91
501.29	19904.21
501.49	19719.89
501.69	18642.66
501.88	18413.29
502.08	16973.56
502.28	16776.96
502.48	16027.40
502.68	15408.92
502.88	14630.69
503.08	14182.18
503.28	13438.77
503.47	12816.19
503.67	12072.78
503.87	11677.52
504.07	11134.81
504.27	10487.65
504.47	10002.28
504.67	9475.95
504.87	8867.70
505.06	8595.32
505.26	8060.80
505.46	7380.88
505.66	7143.32
505.86	6772.63
506.06	6526.88
506.26	6123.43
506.45	5744.55
506.65	5644.20
506.85	5316.53
507.05	4808.63
507.25	4704.18
507.45	4536.25
507.65	4401.08
507.84	4026.31
508.04	4026.31
508.24	3876.80
508.44	3921.86
508.64	3610.57
508.84	3547.08
509.04	3489.74
509.23	3569.61
509.43	3485.64
509.63	3381.20
509.83	3178.45
510.03	3239.89
510.23	3149.78
510.42	3127.25
510.62	3205.07
510.82	3219.41
511.02	3192.78
511.22	3088.34
511.42	2973.65
511.61	2942.93
511.81	3020.75
512.01	2936.79
512.21	3004.37
512.41	2924.50
512.60	2899.92
512.80	3028.95
513.00	2981.84
513.20	2971.60
513.40	2891.73
513.60	3033.04
513.79	3018.71
513.99	3018.71
514.19	3065.81
514.39	2987.99
514.59	2990.03
514.78	3037.14
514.98	2926.55
515.18	3018.71
515.38	2951.12
515.58	3094.48
515.77	2957.27
515.97	2901.97
516.17	3049.43
516.37	3037.14
516.57	2936.79
516.76	3092.43
516.96	3106.77
517.16	2981.84
517.36	3094.48
517.56	3002.32
517.75	2992.08
517.95	2930.64
518.15	3106.77
518.35	3024.85
518.55	3098.58
518.74	3219.41
518.94	2949.08
519.14	2983.89
519.34	3002.32
519.53	3166.16
519.73	3065.81
519.93	2975.70
520.13	2975.70
520.32	3092.43
520.52	3006.42
520.72	3256.27
520.92	3026.90
521.12	3094.48
521.31	3135.44
521.51	3164.11
521.71	3069.91
521.91	3055.57
522.10	3157.97
522.30	3133.39
522.50	3237.84
522.70	3184.59
522.89	3065.81
523.09	3184.59
523.29	3059.67
523.49	3235.79
523.68	3272.65
523.88	3213.26
524.08	3317.71
524.28	3194.83
524.47	3114.96
524.67	3184.59
524.87	3133.39
525.07	3186.64
525.26	3186.64
525.46	3258.32
525.66	3293.13
525.86	3215.31
526.05	3278.80
526.25	3078.10
526.45	3198.93
526.64	3117.01
526.84	3184.59
527.04	3211.22
527.24	3246.03
527.43	3213.26
527.63	3268.56
527.83	3233.74
528.03	3295.18
528.22	3321.81
528.42	3282.89
528.62	3334.09
528.81	3284.94
529.01	3176.40
529.21	3188.69
529.41	3366.86
529.60	3264.46
529.80	3338.19
530.00	3256.27
530.19	3299.28
530.39	3354.57
530.59	3223.50
530.79	3196.88
530.98	3301.33
531.18	3098.58
531.38	3119.06
531.57	3225.55
531.77	3323.85
531.97	3319.76
532.16	3172.30
532.36	3192.78
532.56	3117.01
532.76	3340.24
532.95	3325.90
533.15	3315.66
533.35	3289.04
533.54	3450.83
533.74	3315.66
533.94	3440.59
534.13	3221.45
534.33	3389.39
534.53	3246.03
534.72	3358.67
534.92	3325.90
535.12	3272.65
535.31	3307.47
535.51	3213.26
535.71	3280.85
535.90	3393.48
536.10	3174.35
536.30	3334.09
536.49	3307.47
536.69	3327.95
536.89	3346.38
537.08	3315.66
537.28	3299.28
537.48	3516.36
537.67	3291.09
537.87	3274.70
538.07	3254.22
538.26	3182.54
538.46	3360.72
538.66	3200.98
538.85	3211.22
539.05	3532.75
539.25	3375.05
539.44	3411.92
539.64	3280.85
539.84	3340.24
540.03	3268.56
540.23	3467.21
540.42	3340.24
540.62	3598.28
540.82	3248.08
541.01	3395.53
541.21	3330.00
541.41	3258.32
541.60	3291.09
541.80	3325.90
542.00	3381.20
542.19	3342.28
542.39	3354.57
542.58	3334.09
542.78	3364.81
542.98	3395.53
543.17	3319.76
543.37	3289.04
543.57	3379.15
543.76	3444.68
543.96	3442.64
544.15	3569.61
544.35	3499.98
544.55	3221.45
544.74	3321.81
544.94	3526.60
545.13	3499.98
545.33	3487.69
545.53	3375.05
545.72	3360.72
545.92	3411.92
546.11	3334.09
546.31	3403.72
546.51	3418.06
546.70	3495.88
546.90	3399.63
547.09	3301.33
547.29	3319.76
547.49	3495.88
547.68	3346.38
547.88	3301.33
548.07	3532.75
548.27	3315.66
548.47	3381.20
548.66	3469.26
548.86	3432.40
549.05	3534.79
549.25	3336.14
549.45	3409.87
549.64	3407.82
549.84	3471.31
550.03	3454.92
550.23	3553.23
550.42	3442.64
550.62	3291.09
550.82	3137.49
551.01	3373.00
551.21	3348.43
551.40	3370.96
551.60	3385.29
551.79	3567.56
551.99	3385.29
552.19	3395.53
552.38	3389.39
552.58	3532.75
552.77	3377.10
552.97	3356.62
553.16	3557.32
553.36	3510.22
553.55	3432.40
553.75	3493.83
553.95	3360.72
554.14	3428.30
554.34	3416.01
554.53	3516.36
554.73	3504.07
554.92	3504.07
555.12	3383.24
555.31	3444.68
555.51	3366.86
555.70	3444.68
555.90	3442.64
556.09	3409.87
556.29	3471.31
556.49	3383.24
556.68	3475.40
556.88	3346.38
557.07	3395.53
557.27	3354.57
557.46	3565.51
557.66	3405.77
557.85	3473.36
558.05	3534.79
558.24	3411.92
558.44	3459.02
558.63	3461.07
558.83	3454.92
559.02	3391.44
559.22	3403.72
559.41	3622.86
559.61	3667.91
559.80	3561.42
560.00	3430.35
560.19	3483.59
560.39	3483.59
560.58	3712.97
560.78	3297.23
560.97	3610.57
561.17	3485.64
561.36	3583.95
561.56	3532.75
561.75	3413.96
561.95	3526.60
562.14	3506.12
562.34	3391.44
562.53	3536.84
562.73	3278.80
562.92	3430.35
563.12	3362.76
563.31	3456.97
563.51	3502.03
563.70	3520.46
563.90	3332.05
564.09	3436.49
564.29	3442.64
564.48	3481.55
564.68	3473.36
564.87	3540.94
565.07	3463.12
565.26	3393.48
565.46	3452.88
565.65	3522.51
565.85	3377.10
566.04	3469.26
566.24	3485.64
566.43	3571.66
566.63	3469.26
566.82	3520.46
567.01	3411.92
567.21	3467.21
567.40	3565.51
567.60	3448.78
567.79	3569.61
567.99	3588.04
568.18	3510.22
568.38	3491.79
568.57	3479.50
568.77	3432.40
568.96	3551.18
569.15	3565.51
569.35	3391.44
569.54	3612.62
569.74	3491.79
569.93	3405.77
570.13	3559.37
570.32	3475.40
570.52	3459.02
570.71	3489.74
570.90	3520.46
571.10	3524.55
571.29	3526.60
571.49	3418.06
571.68	3502.03
571.88	3428.30
572.07	3407.82
572.26	3526.60
572.46	3389.39
572.65	3514.31
572.85	3563.47
573.04	3510.22
573.24	3510.22
573.43	3499.98
573.62	3573.71
573.82	3516.36
574.01	3469.26
574.21	3506.12
574.40	3450.83
574.59	3422.16
574.79	3606.47
574.98	3499.98
575.18	3375.05
575.37	3557.32
575.56	3540.94
575.76	3407.82
575.95	3549.13
576.15	3585.99
576.34	3399.63
576.53	3497.93
576.73	3612.62
576.92	3420.11
577.12	3295.18
577.31	3534.79
577.50	3321.81
577.70	3483.59
577.89	3536.84
578.09	3536.84
578.28	3446.73
578.47	3440.59
578.67	3588.04
578.86	3418.06
579.06	3438.54
579.25	3585.99
579.44	3487.69
579.64	3635.14
579.83	3442.64
580.02	3506.12
580.22	3448.78
580.41	3598.28
580.61	3483.59
580.80	3481.55
580.99	3512.27
581.19	3624.90
581.38	3487.69
581.57	3477.45
581.77	3538.89
581.96	3422.16
582.15	3409.87
582.35	3577.80
582.54	3514.31
582.73	3565.51
582.93	3434.44
583.12	3518.41
583.32	3516.36
583.51	3407.82
583.70	3454.92
583.90	3573.71
584.09	3495.88
584.28	3420.11
584.48	3483.59
584.67	3581.90
584.86	3428.30
585.06	3524.55
585.25	3493.83
585.44	3569.61
585.64	3444.68
585.83	3598.28
586.02	3442.64
586.22	3489.74
586.41	3338.19
586.60	3418.06
586.80	3315.66
586.99	3442.64
587.18	3473.36
587.38	3545.03
587.57	3459.02
587.76	3497.93
587.96	3467.21
588.15	3577.80
588.34	3395.53
588.53	3506.12
588.73	3428.30
588.92	3418.06
589.11	3655.62
589.31	3563.47
589.50	3461.07
589.69	3512.27
589.89	3559.37
590.08	3483.59
590.27	3561.42
590.47	3459.02
590.66	3332.05
590.85	3420.11
591.04	3424.20
591.24	3336.14
591.43	3669.96
591.62	3395.53
591.82	3319.76
592.01	3528.65
592.20	3635.14
592.39	3547.08
592.59	3553.23
592.78	3547.08
592.97	3432.40
593.17	3413.96
593.36	3315.66
593.55	3401.68
593.74	3362.76
593.94	3479.50
594.13	3459.02
594.32	3569.61
594.52	3481.55
594.71	3485.64
594.90	3485.64
595.09	3545.03
595.29	3307.47
595.48	3489.74
595.67	3514.31
595.86	3508.17
596.06	3516.36
596.25	3633.10
596.44	3495.88
596.63	3393.48
596.83	3473.36
597.02	3567.56
597.21	3305.42
597.40	3522.51
597.60	3452.88
597.79	3516.36
597.98	3461.07
598.17	3440.59
598.37	3495.88
598.56	3313.61
598.75	3461.07
598.94	3585.99
599.14	3416.01
599.33	3446.73
599.52	3469.26
599.71	3497.93
599.91	3499.98
600.10	3340.24
600.29	3424.20
600.48	3524.55
600.68	3600.33
600.87	3401.68
601.06	3448.78
601.25	3581.90
601.44	3545.03
601.64	3426.25
601.83	3657.67
602.02	3506.12
602.21	3557.32
602.41	3600.33
602.60	3487.69
602.79	3471.31
602.98	3553.23
603.17	3499.98
603.37	3467.21
603.56	3518.41
603.75	3553.23
603.94	3557.32
604.13	3571.66
604.33	3553.23
604.52	3467.21
604.71	3504.07
604.90	3479.50
605.09	3606.47
605.29	3508.17
605.48	3422.16
605.67	3524.55
605.86	3571.66
606.05	3555.27
606.25	3350.48
606.44	3545.03
606.63	3526.60
606.82	3405.77
607.01	3450.83
607.20	3624.90
607.40	3489.74
607.59	3520.46
607.78	3438.54
607.97	3448.78
608.16	3454.92
608.36	3504.07
608.55	3405.77
608.74	3512.27
608.93	3491.79
609.12	3475.40
609.31	3477.45
609.51	3420.11
609.70	3565.51
609.89	3430.35
610.08	3493.83
610.27	3366.86
610.46	3479.50
610.66	3362.76
610.85	3432.40
611.04	3567.56
611.23	3459.02
611.42	3534.79
611.61	3475.40
611.80	3514.31
612.00	3575.75
612.19	3622.86
612.38	3651.53
612.57	3620.81
612.76	3598.28
612.95	3758.02
613.14	3516.36
613.34	3540.94
613.53	3375.05
613.72	3485.64
613.91	3356.62
614.10	3502.03
614.29	3641.29
614.48	3375.05
614.67	3479.50
614.87	3569.61
615.06	3405.77
615.25	3594.19
615.44	3559.37
615.63	3477.45
615.82	3534.79
616.01	3573.71
616.20	3366.86
616.40	3510.22
616.59	3688.39
616.78	3536.84
616.97	3712.97
617.16	3436.49
617.35	3588.04
617.54	3678.15
617.73	3526.60
617.92	3588.04
618.12	3512.27
618.31	3504.07
618.50	3555.27
618.69	3409.87
618.88	3483.59
619.07	3399.63
619.26	3614.66
619.45	3448.78
619.64	3516.36
619.83	3577.80
620.02	3520.46
620.22	3442.64
620.41	3585.99
620.60	3612.62
620.79	3534.79
620.98	3448.78
621.17	3385.29
621.36	3708.87
621.55	3524.55
621.74	3571.66
621.93	3598.28
622.12	3672.01
622.31	3602.38
622.51	3641.29
622.70	3485.64
622.89	3674.06
623.08	3629.00
623.27	3561.42
623.46	3553.23
623.65	3614.66
623.84	3512.27
624.03	3629.00
624.22	3545.03
624.41	3477.45
624.60	3485.64
624.79	3592.14
624.98	3692.49
625.17	3473.36
625.36	3508.17
625.55	3608.52
625.74	3581.90
625.94	3559.37
626.13	3487.69
626.32	3483.59
626.51	3604.42
626.70	3442.64
626.89	3368.91
627.08	3733.45
627.27	3653.58
627.46	3489.74
627.65	3508.17
627.84	3456.97
628.03	3604.42
628.22	3491.79
628.41	3692.49
628.60	3463.12
628.79	3483.59
628.98	3700.68
629.17	3565.51
629.36	3440.59
629.55	3534.79
629.74	3528.65
629.93	3504.07
630.12	3596.23
630.31	3532.75
630.50	3555.27
630.69	3545.03
630.88	3516.36
631.07	3540.94
631.26	3563.47
631.45	3567.56
631.64	3592.14
631.83	3450.83
632.02	3557.32
632.21	3477.45
632.40	3651.53
632.59	3397.58
632.78	3430.35
632.97	3487.69
633.16	3567.56
633.35	3454.92
633.54	3481.55
633.73	3313.61
633.92	3432.40
634.11	3493.83
634.30	3387.34
634.49	3330.00
634.68	3327.95
634.87	3592.14
635.06	3463.12
635.25	3426.25
635.44	3481.55
635.63	3416.01
635.82	3487.69
636.01	3403.72
636.20	3551.18
636.39	3567.56
636.58	3547.08
636.77	3450.83
636.96	3409.87
637.15	3536.84
637.34	3479.50
637.53	3520.46
637.72	3434.44
637.91	3389.39
638.09	3456.97
638.28	3405.77
638.47	3373.00
638.66	3438.54
638.85	3442.64
639.04	3559.37
639.23	3397.58
639.42	3594.19
639.61	3405.77
639.80	3387.34
639.99	3387.34
640.18	3454.92
640.37	3764.17
640.56	3436.49
640.75	3342.28
640.94	3389.39
641.13	3366.86
641.32	3538.89
641.50	3438.54
641.69	3311.57
641.88	3276.75
642.07	3444.68
642.26	3454.92
642.45	3395.53
642.64	3391.44
642.83	3330.00
643.02	3485.64
643.21	3309.52
643.40	3526.60
643.59	3393.48
643.77	3282.89
643.96	3459.02
644.15	3418.06
644.34	3327.95
644.53	3313.61
644.72	3336.14
644.91	3356.62
645.10	3508.17
645.29	3401.68
645.48	3256.27
645.67	3286.99
645.85	3399.63
646.04	3444.68
646.23	3373.00
646.42	3366.86
646.61	3246.03
646.80	3348.43
646.99	3256.27
647.18	3362.76
647.37	3381.20
647.55	3297.23
647.74	3434.44
647.93	3231.69
648.12	3409.87
648.31	3327.95
648.50	3327.95
648.69	3389.39
648.88	3262.41
649.06	3325.90
649.25	3291.09
649.44	3289.04
649.63	3237.84
649.82	3405.77
650.01	3405.77
650.20	3391.44
650.39	3266.51
650.57	3385.29
650.76	3393.48
650.95	3307.47
651.14	3227.60
651.33	3289.04
651.52	3280.85
651.70	3266.51
651.89	3295.18
652.08	3168.21
652.27	3366.86
652.46	3409.87
652.65	3346.38
652.84	3327.95
653.02	3291.09
653.21	3270.61
653.40	3235.79
653.59	3291.09
653.78	3233.74
653.97	3272.65
654.15	3364.81
654.34	3200.98
654.53	3192.78
654.72	3246.03
654.91	3299.28
655.10	3168.21
655.28	3327.95
655.47	3344.33
655.66	3172.30
655.85	3264.46
656.04	3340.24
656.23	3225.55
656.41	3235.79
656.60	3221.45
656.79	3373.00
656.98	3385.29
657.17	3284.94
657.35	3272.65
657.54	3131.34
657.73	3291.09
657.92	3188.69
658.11	3358.67
658.29	3063.76
658.48	3172.30
658.67	3192.78
658.86	3299.28
659.05	3192.78
659.23	3239.89
659.42	3243.98
659.61	3274.70
659.80	3184.59
659.99	3153.87
660.17	3268.56
660.36	3221.45
660.55	3186.64
660.74	3448.78
660.92	3203.02
661.11	3295.18
661.30	3131.34
661.49	3225.55
661.68	3123.15
661.86	3260.37
662.05	3301.33
662.24	3286.99
662.43	3137.49
662.61	3147.73
662.80	3237.84
662.99	3117.01
663.18	3137.49
663.37	3188.69
663.55	3252.17
663.74	3315.66
663.93	3076.05
664.12	3221.45
664.30	3266.51
664.49	3282.89
664.68	3170.26
664.87	3037.14
665.05	3203.02
665.24	3209.17
665.43	3147.73
665.62	3026.90
665.80	3196.88
665.99	3223.50
666.18	3274.70
666.37	3143.63
666.55	3086.29
666.74	2930.64
666.93	3258.32
667.11	3127.25
667.30	3110.86
667.49	3121.10
667.68	3282.89
667.86	3125.20
668.05	3215.31
668.24	3174.35
668.43	3055.57
668.61	3176.40
668.80	3209.17
668.99	3051.47
669.17	3168.21
669.36	3151.82
669.55	3086.29
669.74	3137.49
669.92	3016.66
670.11	3127.25
670.30	3135.44
670.48	3164.11
670.67	3051.47
670.86	3084.24
671.05	3008.47
671.23	2936.79
671.42	3033.04
671.61	3147.73
671.79	3235.79
671.98	3110.86
672.17	3063.76
672.35	3145.68
672.54	3203.02
672.73	3213.26
672.91	3203.02
673.10	3028.95
673.29	3092.43
673.48	3014.61
673.66	3090.38
673.85	3145.68
674.04	3061.71
674.22	3125.20
674.41	3051.47
674.60	3102.67
674.78	2985.94
674.97	3035.09
675.16	3049.43
675.34	3041.23
675.53	3043.28
675.72	3106.77
675.90	3196.88
676.09	3147.73
676.28	3160.02
676.46	3117.01
676.65	3069.91
676.84	3123.15
677.02	3125.20
677.21	3139.54
677.40	3069.91
677.58	3082.19
677.77	3098.58
677.95	3012.56
678.14	3014.61
678.33	3067.86
678.51	3000.27
678.70	3016.66
678.89	2998.23
679.07	3047.38
679.26	2985.94
679.45	3102.67
679.63	3082.19
679.82	3149.78
680.01	3020.75
680.19	2953.17
680.38	3051.47
680.56	3012.56
680.75	3010.51
680.94	3086.29
681.12	3053.52
681.31	3022.80
681.50	3067.86
681.68	3047.38
681.87	3082.19
682.05	3026.90
682.24	3272.65
682.43	3049.43
682.61	3061.71
682.80	2967.51
682.98	2920.40
683.17	2971.60
683.36	3035.09
683.54	3012.56
683.73	2996.18
683.91	3004.37
684.10	3012.56
684.29	3090.38
684.47	3098.58
684.66	2985.94
684.84	2975.70
685.03	2910.16
685.22	2994.13
685.40	2998.23
685.59	2987.99
685.77	3166.16
685.96	3045.33
686.15	3051.47
686.33	2963.41
686.52	2996.18
686.70	3000.27
686.89	2901.97
687.07	2959.31
687.26	2846.68
687.45	2889.68
687.63	2877.40
687.82	2942.93
688.00	3039.19
688.19	2940.88
688.37	3033.04
688.56	2994.13
688.75	2944.98
688.93	3133.39
689.12	2879.44
689.30	2934.74
689.49	2973.65
689.67	3022.80
689.86	2955.22
690.04	2987.99
690.23	2805.72
690.42	2926.55
690.60	3102.67
690.79	3069.91
690.97	3069.91
691.16	2838.48
691.34	3049.43
691.53	2912.21
691.71	3030.99
691.90	2987.99
692.08	2846.68
692.27	3004.37
692.45	3059.67
692.64	2854.87
692.83	3043.28
693.01	2928.60
693.20	2942.93
693.38	2914.26
693.57	3119.06
693.75	2721.75
693.94	2828.24
694.12	3045.33
694.31	2990.03
694.49	2973.65
694.68	2899.92
694.86	2985.94
695.05	2865.11
695.23	3012.56
695.42	3016.66
695.60	2975.70
695.79	3000.27
695.97	2869.20
696.16	2918.36
696.34	2768.85
696.53	2838.48
696.71	2979.79
696.90	2899.92
697.08	2822.10
697.27	2901.97
697.45	2828.24
697.64	2887.64
697.82	2940.88
698.01	2973.65
698.19	3028.95
698.38	2873.30
698.56	2850.77
698.75	2873.30
698.93	2885.59
699.12	3026.90
699.30	3010.51
699.49	2914.26
699.67	2906.07
699.86	2789.33
700.04	2844.63
700.22	2987.99
700.41	2734.04
700.59	2996.18
700.78	2848.72
700.96	2875.35
701.15	2766.81
701.33	2846.68
701.52	2807.77
701.70	2881.49
701.89	2877.40
702.07	2791.38
702.26	2793.43
702.44	2938.84
702.62	2895.83
702.81	2789.33
702.99	2848.72
703.18	2924.50
703.36	2904.02
703.55	2932.69
703.73	2953.17
703.92	2873.30
704.10	2824.15
704.28	3002.32
704.47	2793.43
704.65	2783.19
704.84	2803.67
705.02	2750.42
705.21	2768.85
705.39	2844.63
705.57	2932.69
705.76	2846.68
705.94	2848.72
706.13	2861.01
706.31	2840.53
706.50	2731.99
706.68	2879.44
706.86	2699.22
707.05	2791.38
707.23	2635.74
707.42	2795.48
707.60	2586.58
707.78	2856.92
707.97	2832.34
708.15	2811.86
708.34	2793.43
708.52	2754.52
708.70	2721.75
708.89	2672.60
709.07	2740.18
709.26	2731.99
709.44	2883.54
709.62	2725.85
709.81	2695.13
709.99	2768.85
710.18	2840.53
710.36	2656.22
710.54	2781.14
710.73	2734.04
710.91	2717.65
711.10	2838.48
711.28	2596.82
711.46	2754.52
711.65	2709.46
711.83	2736.09
712.01	2852.82
712.20	2797.53
712.38	2770.90
712.57	2758.61
712.75	2711.51
712.93	2709.46
713.12	2619.35
713.30	2615.26
713.48	2600.92
713.67	2676.70
713.85	2699.22
714.03	2770.90
714.22	2799.57
714.40	2637.78
714.58	2621.40
714.77	2805.72
714.95	2742.23
715.14	2660.31
715.32	2701.27
715.50	2781.14
715.69	2641.88
715.87	2729.94
716.05	2562.01
716.24	2613.21
716.42	2623.45
716.60	2615.26
716.79	2617.30
716.97	2729.94
717.15	2611.16
717.34	2576.34
717.52	2631.64
717.70	2691.03
717.89	2549.72
718.07	2623.45
718.25	2615.26
718.44	2740.18
718.62	2541.53
718.80	2613.21
718.98	2574.30
719.17	2680.79
719.35	2709.46
719.53	2707.41
719.72	2559.96
719.90	2572.25
720.08	2617.30
720.27	2600.92
720.45	2748.37
720.63	2754.52
720.82	2635.74
721.00	2676.70
721.18	2551.77
721.36	2611.16
721.55	2635.74
721.73	2686.94
721.91	2562.01
722.10	2574.30
722.28	2531.29
722.46	2516.95
722.64	2480.09
722.83	2525.15
723.01	2678.74
723.19	2523.10
723.38	2478.04
723.56	2557.91
723.74	2553.82
723.92	2484.19
724.11	2498.52
724.29	2553.82
724.47	2514.91
724.65	2553.82
724.84	2521.05
725.02	2654.17
725.20	2615.26
725.39	2463.71
725.57	2637.78
725.75	2602.97
725.93	2592.73
726.12	2738.13
726.30	2445.27
726.48	2463.71
726.66	2480.09
726.85	2398.17
727.03	2678.74
727.21	2496.47
727.39	2568.15
727.58	2607.06
727.76	2359.26
727.94	2539.48
728.12	2492.38
728.30	2502.62
728.49	2426.84
728.67	2459.61
728.85	2443.23
729.03	2469.85
729.22	2660.31
729.40	2496.47
729.58	2551.77
729.76	2437.08
729.95	2467.80
730.13	2467.80
730.31	2426.84
730.49	2496.47
730.67	2516.95
730.86	2465.75
731.04	2504.67
731.22	2365.40
731.40	2461.66
731.58	2445.27
731.77	2498.52
731.95	2367.45
732.13	2365.40
732.31	2383.84
732.50	2465.75
732.68	2379.74
732.86	2502.62
733.04	2279.39
733.22	2353.12
733.40	2351.07
733.59	2496.47
733.77	2385.88
733.95	2475.99
734.13	2365.40
734.31	2402.27
734.50	2416.60
734.68	2416.60
734.86	2414.56
735.04	2308.06
735.22	2293.72
735.41	2488.28
735.59	2285.53
735.77	2371.55
735.95	2467.80
736.13	2461.66
736.31	2314.20
736.50	2322.40
736.68	2473.95
736.86	2310.11
737.04	2281.44
737.22	2299.87
737.40	2365.40
737.59	2318.30
737.77	2385.88
737.95	2310.11
738.13	2344.92
738.31	2467.80
738.49	2342.88
738.67	2336.73
738.86	2303.96
739.04	2377.69
739.22	2385.88
739.40	2248.67
739.58	2406.36
739.76	2265.05
739.94	2357.21
740.13	2439.13
740.31	2293.72
740.49	2320.35
740.67	2232.29
740.85	2291.68
741.03	2213.85
741.21	2349.02
741.39	2228.19
741.58	2322.40
741.76	2367.45
741.94	2332.64
742.12	2287.58
742.30	2273.25
742.48	2385.88
742.66	2228.19
742.84	2279.39
743.03	2275.29
743.21	2437.08
743.39	2234.33
743.57	2320.35
743.75	2332.64
743.93	2420.70
744.11	2244.57
744.29	2248.67
744.47	2260.96
744.65	2332.64
744.84	2248.67
745.02	2254.81
745.20	2162.66
745.38	2308.06
745.56	2154.46
745.74	2246.62
745.92	2244.57
746.10	2283.49
746.28	2150.37
746.46	2254.81
746.64	2246.62
746.82	2365.40
747.01	2127.84
747.19	2297.82
747.37	2203.61
747.55	2267.10
747.73	2281.44
747.91	2103.26
748.09	2138.08
748.27	2174.94
748.45	2263.01
748.63	2164.70
748.81	2103.26
748.99	2185.18
749.17	2252.77
749.35	2213.85
749.53	2041.82
749.72	2209.76
749.90	2168.80
750.08	2275.29
750.26	2191.33
750.44	2275.29
750.62	2338.78
750.80	2154.46
750.98	2250.72
751.16	2074.59
751.34	2111.46
751.52	2185.18
751.70	2234.33
751.88	2195.42
752.06	2314.20
752.24	2084.83
752.42	2211.81
752.60	2158.56
752.78	2068.45
752.96	2093.02
753.14	2226.14
753.32	2244.57
753.50	2150.37
753.68	2185.18
753.86	2213.85
754.04	1990.63
754.22	2185.18
754.40	2258.91
754.58	2037.73
754.76	2113.50
754.94	2084.83
755.12	2213.85
755.30	2138.08
755.48	2189.28
755.66	2115.55
755.84	2129.89
756.02	2195.42
756.20	2000.87
756.38	2312.16
756.56	2176.99
756.74	2078.69
756.92	2191.33
757.10	1998.82
757.28	2088.93
757.46	2117.60
757.64	2205.66
757.82	2181.09
758.00	2090.98
758.18	2111.46
758.36	2050.02
758.54	2201.57
758.72	2125.79
758.90	2031.58
759.08	2127.84
759.26	2146.27
759.44	2068.45
759.62	2166.75
759.80	2025.44
759.98	2142.18
760.16	2164.70
760.34	2115.55
760.52	2279.39
760.70	2142.18
760.88	1935.33
761.06	1964.00
761.24	2191.33
761.42	2047.97
761.60	2197.47
761.77	2052.06
761.95	2056.16
762.13	2205.66
762.31	2088.93
762.49	2039.78
762.67	2142.18
762.85	2031.58
763.03	2052.06
763.21	1925.09
763.39	2064.35
763.57	2179.04
763.75	2164.70
763.93	2043.87
764.11	2004.96
764.29	2066.40
764.46	2021.35
764.64	2129.89
764.82	2076.64
765.00	2117.60
765.18	2191.33
765.36	2099.17
765.54	2093.02
765.72	2047.97
765.90	2054.11
766.08	2142.18
766.26	2129.89
766.44	2166.75
766.61	2064.35
766.79	2060.26
766.97	2152.42
767.15	1998.82
767.33	2058.21
767.51	2047.97
767.69	2074.59
767.87	2070.50
768.05	2058.21
768.22	2105.31
768.40	2211.81
768.58	2133.98
768.76	2033.63
768.94	2041.82
769.12	2000.87
769.30	2090.98
769.48	2152.42
769.66	2033.63
769.83	1959.91
770.01	1959.91
770.19	2129.89
770.37	2115.55
770.55	1947.62
770.73	2093.02
770.91	2050.02
771.09	2029.54
771.26	1918.95
771.44	2158.56
771.62	2045.92
771.80	2037.73
771.98	2033.63
772.16	1964.00
772.34	1964.00
772.51	1929.19
772.69	2058.21
772.87	2158.56
773.05	2103.26
773.23	2060.26
773.41	2007.01
773.58	2168.80
773.76	2019.30
773.94	2037.73
774.12	2037.73
774.30	2043.87
774.48	2039.78
774.65	1943.52
774.83	2076.64
775.01	2054.11
775.19	1888.23
775.37	2133.98
775.55	2068.45
775.72	1961.95
775.90	2064.35
776.08	1955.81
776.26	2228.19
776.44	2129.89
776.61	1986.53
776.79	2076.64
776.97	2023.39
777.15	1984.48
777.33	1966.05
777.51	1992.67
777.68	1976.29
777.86	1929.19
778.04	2060.26
778.22	1959.91
778.40	1894.37
778.57	1912.80
778.75	1945.57
778.93	2041.82
779.11	1849.32
779.29	1972.19
779.46	1912.80
779.64	1910.75
779.82	2002.91
780.00	1914.85
780.17	1998.82
780.35	1914.85
780.53	2015.20
780.71	2021.35
780.89	2037.73
781.06	1939.43
781.24	1968.10
781.42	1931.23
781.60	1988.58
781.77	1898.47
781.95	2070.50
782.13	2013.15
782.31	2045.92
782.48	2023.39
782.66	2002.91
782.84	2072.54
783.02	1994.72
783.19	2047.97
783.37	1941.47
783.55	2002.91
783.73	1939.43
783.90	1941.47
784.08	2041.82
784.26	1941.47
784.44	1873.89
784.61	1964.00
784.79	1957.86
784.97	1949.67
785.15	2097.12
785.32	1828.84
785.50	2017.25
785.68	2007.01
785.86	1941.47
786.03	1939.43
786.21	2115.55
786.39	1978.34
786.57	1959.91
786.74	1837.03
786.92	1996.77
787.10	2142.18
787.27	1845.22
787.45	1953.76
787.63	2023.39
787.81	2062.30
787.98	1959.91
788.16	2045.92
788.34	2074.59
788.51	1972.19
788.69	1877.99
788.87	1923.04
789.04	2082.78
789.22	2029.54
789.40	1968.10
789.58	1869.80
789.75	1992.67
789.93	2050.02
790.11	1937.38
790.28	1898.47
790.46	2144.22
790.64	1914.85
790.81	1912.80
790.99	2013.15
791.17	2011.11
791.34	1970.15
791.52	1949.67
791.70	1859.56
791.87	1984.48
792.05	2027.49
792.23	1877.99
792.40	1931.23
792.58	1894.37
792.76	1925.09
792.93	1990.63
793.11	1851.36
793.29	1947.62
793.46	2041.82
793.64	2019.30
793.82	2013.15
793.99	1898.47
794.17	1740.77
794.35	1896.42
794.52	1976.29
794.70	1896.42
794.88	2142.18
795.05	1884.13
795.23	1812.45
795.41	1898.47
795.58	1875.94
795.76	1910.75
795.94	1757.16
796.11	1966.05
796.29	1984.48
796.46	2074.59
796.64	1906.66
796.82	1916.90
796.99	1918.95
797.17	1751.01
797.35	1894.37
797.52	1867.75
797.70	2107.36
797.87	1964.00
798.05	2066.40
798.23	1925.09
798.40	2078.69
798.58	1890.28
798.76	1941.47
798.93	2007.01
799.11	2011.11
799.28	1904.61
799.46	1898.47
799.64	1808.36
799.81	1939.43
799.99	1957.86
800.16	1857.51
800.34	2037.73
800.52	1855.46
800.69	1933.28
800.87	1951.71
801.04	2047.97
801.22	1849.32
801.39	1982.43
801.57	1828.84
801.75	1849.32
801.92	1966.05
802.10	1834.98
802.27	1845.22
802.45	2152.42
802.63	1951.71
802.80	2000.87
802.98	1816.55
803.15	1898.47
803.33	1908.71
803.50	1980.39
803.68	1914.85
803.86	1966.05
804.03	1947.62
804.21	2066.40
804.38	1978.34
804.56	2072.54
804.73	2064.35
804.91	1783.78
805.08	1910.75
805.26	1892.32
805.44	1959.91
805.61	1929.19
805.79	1964.00
805.96	1976.29
806.14	1918.95
806.31	1898.47
806.49	1949.67
806.66	2031.58
806.84	1972.19
807.01	2029.54
807.19	1986.53
807.36	1910.75
807.54	1910.75
807.71	1767.40
807.89	1949.67
808.07	1988.58
808.24	1992.67
808.42	2009.06
808.59	1964.00
808.77	1968.10
808.94	2064.35
809.12	1935.33
809.29	2027.49
809.47	1925.09
809.64	1849.32
809.82	2007.01
809.99	1945.57
810.17	1976.29
810.34	1937.38
810.52	1824.74
810.69	1869.80
810.87	1947.62
811.04	1861.60
811.22	2002.91
811.39	1941.47
811.57	1910.75
811.74	1947.62
811.92	1894.37
812.09	2138.08
812.27	2043.87
812.44	1914.85
812.62	2033.63
812.79	2021.35
812.97	2133.98
813.14	1904.61
813.31	1828.84
813.49	1920.99
813.66	1941.47
813.84	1964.00
814.01	1955.81
814.19	1912.80
814.36	1912.80
814.54	1927.14
814.71	1918.95
814.89	1941.47
815.06	2015.20
815.24	1970.15
815.41	2054.11
815.58	1929.19
815.76	2007.01
815.93	2056.16
816.11	1988.58
816.28	1861.60
816.46	1890.28
816.63	1882.08
816.81	1857.51
816.98	1955.81
817.15	1966.05
817.33	2011.11
817.50	1880.04
817.68	1855.46
817.85	2007.01
818.03	1939.43
818.20	1855.46
818.37	1785.83
818.55	1834.98
818.72	1880.04
818.90	1980.39
819.07	1902.56
819.25	2099.17
819.42	1937.38
819.59	1855.46
819.77	1888.23
819.94	1925.09
820.12	2031.58
820.29	2095.07
820.46	1937.38
820.64	1937.38
820.81	1935.33
820.99	2025.44
821.16	1957.86
821.33	1992.67
821.51	2062.30
821.68	1982.43
821.86	2136.03
822.03	1918.95
822.20	2043.87
822.38	1951.71
822.55	1964.00
822.73	1923.04
822.90	2000.87
823.07	1841.12
823.25	1986.53
823.42	1900.52
823.59	1949.67
823.77	1888.23
823.94	2062.30
824.12	2060.26
824.29	1920.99
824.46	1886.18
824.64	1820.64
824.81	1869.80
824.98	1964.00
825.16	1945.57
825.33	1875.94
825.50	1875.94
825.68	1976.29
825.85	1968.10
826.03	1843.17
826.20	1949.67
826.37	2015.20
826.55	1986.53
826.72	1884.13
826.89	1951.71
827.07	1947.62
827.24	1820.64
827.41	1918.95
827.59	1918.95
827.76	1964.00
827.93	1877.99
828.11	1857.51
828.28	1851.36
828.45	1937.38
828.63	1890.28
828.80	1998.82
828.97	1990.63
829.15	1980.39
829.32	1849.32
829.49	2066.40
829.67	1880.04
829.84	1935.33
830.01	1806.31
830.18	1980.39
830.36	1947.62
830.53	1837.03
830.70	1980.39
830.88	1853.41
831.05	1949.67
831.22	2029.54
831.40	1810.40
831.57	1783.78
831.74	2107.36
831.91	1912.80
832.09	1945.57
832.26	1812.45
832.43	1976.29
832.61	1923.04
832.78	1925.09
832.95	1873.89
833.13	1978.34
833.30	1931.23
833.47	1994.72
833.64	1869.80
833.82	1982.43
833.99	1853.41
834.16	1951.71
834.33	1951.71
834.51	1968.10
834.68	2017.25
834.85	1845.22
835.03	1925.09
835.20	1863.65
835.37	1824.74
835.54	1841.12
835.72	1988.58
835.89	1896.42
836.06	1996.77
836.23	1894.37
836.41	1841.12
836.58	1763.30
836.75	1886.18
836.92	1830.88
837.10	1767.40
837.27	1920.99
837.44	1886.18
837.61	1783.78
837.78	1937.38
837.96	1916.90
838.13	1923.04
838.30	1814.50
838.47	1978.34
838.65	1798.12
838.82	1841.12
838.99	1808.36
839.16	1822.69
839.34	1873.89
839.51	1841.12
839.68	1871.84
839.85	1904.61
840.02	1830.88
840.20	1820.64
840.37	1824.74
840.54	1816.55
840.71	1994.72
840.88	1880.04
841.06	1851.36
841.23	1945.57
841.40	2009.06
841.57	1894.37
841.74	1781.73
841.92	1867.75
842.09	1787.88
842.26	1906.66
842.43	1665.00
842.60	1744.87
842.78	1787.88
842.95	1720.29
843.12	1861.60
843.29	1757.16
843.46	1890.28
843.64	1873.89
843.81	1755.11
843.98	1914.85
844.15	1945.57
844.32	1742.82
844.49	1771.49
844.67	1916.90
844.84	1865.70
845.01	1818.60
845.18	1773.54
845.35	1783.78
845.52	1695.72
845.70	1880.04
845.87	1865.70
846.04	1839.08
846.21	1794.02
846.38	1970.15
846.55	1724.39
846.72	1775.59
846.90	1912.80
847.07	1693.67
847.24	1925.09
847.41	1955.81
847.58	1796.07
847.75	1822.69
847.92	1789.92
848.10	1773.54
848.27	1765.35
848.44	1941.47
848.61	1728.49
848.78	1861.60
848.95	1767.40
849.12	1859.56
849.29	1798.12
849.47	1734.63
849.64	1748.97
849.81	1904.61
849.98	1873.89
850.15	1851.36
850.32	1814.50
850.49	1716.20
850.66	1669.09
850.84	1708.01
851.01	1701.86
851.18	1798.12
851.35	1626.09
851.52	1691.62
851.69	1755.11
851.86	1890.28
852.03	1794.02
852.20	1765.35
852.37	1748.97
852.54	1796.07
852.72	1810.40
852.89	1925.09
853.06	1751.01
853.23	1826.79
853.40	1777.64
853.57	1611.75
853.74	1734.63
853.91	1628.14
854.08	1736.68
854.25	1482.73
854.42	1714.15
854.59	1791.97
854.76	1730.53
854.94	1767.40
855.11	1744.87
855.28	1609.70
855.45	1765.35
855.62	1644.52
855.79	1658.85
855.96	1693.67
856.13	1671.14
856.30	1701.86
856.47	1734.63
856.64	1720.29
856.81	1607.66
856.98	1728.49
857.15	1703.91
857.32	1542.12
857.49	1683.43
857.66	1599.46
857.83	1644.52
858.00	1699.81
858.17	1703.91
858.35	1642.47
858.52	1804.26
858.69	1693.67
858.86	1576.94
859.03	1703.91
859.20	1648.61
859.37	1671.14
859.54	1712.10
859.71	1636.33
859.88	1644.52
860.05	1591.27
860.22	1669.09
860.39	1677.29
860.56	1603.56
860.73	1646.57
860.90	1652.71
861.07	1658.85
861.24	1554.41
861.41	1728.49
861.58	1535.98
861.75	1593.32
861.92	1658.85
862.09	1708.01
862.26	1681.38
862.43	1644.52
862.60	1642.47
862.77	1720.29
862.94	1574.89
863.11	1660.90
863.28	1781.73
863.45	1558.50
863.62	1544.17
863.79	1505.26
863.96	1732.58
864.13	1685.48
864.30	1525.74
864.46	1523.69
864.63	1632.23
864.80	1574.89
864.97	1665.00
865.14	1468.39
865.31	1507.30
865.48	1667.05
865.65	1585.13
865.82	1667.05
865.99	1646.57
866.16	1607.66
866.33	1621.99
866.50	1517.54
866.67	1767.40
866.84	1546.22
867.01	1699.81
867.18	1624.04
867.35	1804.26
867.52	1775.59
867.69	1583.08
867.85	1544.17
868.02	1531.88
868.19	1665.00
868.36	1511.40
868.53	1634.28
868.70	1621.99
868.87	1576.94
869.04	1566.70
869.21	1609.70
869.38	1599.46
869.55	1800.16
869.72	1607.66
869.89	1464.30
870.05	1550.31
870.22	1574.89
870.39	1468.39
870.56	1665.00
870.73	1568.74
870.90	1712.10
871.07	1648.61
871.24	1548.26
871.41	1660.90
871.58	1609.70
871.74	1490.92
871.91	1581.03
872.08	1593.32
872.25	1568.74
872.42	1538.02
872.59	1521.64
872.76	1619.94
872.93	1724.39
873.10	1576.94
873.26	1617.90
873.43	1525.74
873.60	1644.52
873.77	1470.44
873.94	1570.79
874.11	1589.22
874.28	1724.39
874.45	1578.98
874.61	1570.79
874.78	1517.54
874.95	1593.32
875.12	1523.69
875.29	1652.71
875.46	1511.40
875.63	1730.53
875.79	1570.79
875.96	1591.27
876.13	1505.26
876.30	1521.64
876.47	1515.50
876.64	1576.94
876.80	1525.74
876.97	1581.03
877.14	1558.50
877.31	1560.55
877.48	1589.22
877.65	1529.83
877.81	1531.88
877.98	1431.53
878.15	1542.12
878.32	1497.07
878.49	1589.22
878.66	1605.61
878.82	1617.90
878.99	1603.56
879.16	1413.10
879.33	1435.63
879.50	1673.19
879.67	1648.61
879.83	1519.59
880.00	1482.73
880.17	1513.45
880.34	1544.17
880.51	1499.11
880.67	1515.50
880.84	1587.18
881.01	1542.12
881.18	1515.50
881.35	1415.15
881.51	1464.30
881.68	1593.32
881.85	1564.65
882.02	1488.87
882.18	1486.83
882.35	1529.83
882.52	1499.11
882.69	1484.78
882.86	1560.55
883.02	1497.07
883.19	1513.45
883.36	1495.02
883.53	1484.78
883.69	1542.12
883.86	1468.39
884.03	1538.02
884.20	1523.69
884.36	1521.64
884.53	1509.35
884.70	1443.82
884.87	1511.40
885.04	1583.08
885.20	1521.64
885.37	1486.83
885.54	1495.02
885.71	1482.73
885.87	1484.78
886.04	1341.42
886.21	1511.40
886.38	1572.84
886.54	1533.93
886.71	1478.63
886.88	1624.04
>>>>>End Processed Spectral Data<<<<<
